ms,resistance
1,527.00
2,520.00
3,521.00
4,521.00
5,521.00
6,521.00
7,520.00
8,521.00
9,520.00
10,521.00
11,522.00
12,516.00
13,521.00
14,520.00
15,522.00
16,519.00
17,521.00
18,520.00
19,523.00
20,519.00
21,521.00
22,523.00
23,519.00
24,522.00
25,523.00
26,524.00
27,519.00
28,522.00
29,521.00
30,521.00
31,522.00
32,521.00
33,523.00
34,521.00
35,523.00
36,521.00
37,522.00
38,520.00
39,520.00
40,522.00
41,521.00
42,521.00
43,521.00
44,524.00
45,520.00
46,523.00
47,522.00
48,524.00
49,521.00
50,521.00
51,524.00
52,524.00
53,524.00
54,519.00
55,523.00
56,521.00
57,524.00
58,521.00
59,522.00
60,523.00
61,521.00
62,522.00
63,520.00
64,521.00
65,520.00
66,521.00
67,522.00
68,522.00
69,520.00
70,522.00
71,523.00
72,520.00
73,522.00
74,524.00
75,524.00
76,519.00
77,520.00
78,522.00
79,521.00
80,521.00
81,517.00
82,522.00
83,522.00
84,522.00
85,521.00
86,521.00
87,522.00
88,522.00
89,522.00
90,521.00
91,522.00
92,521.00
93,521.00
94,522.00
95,522.00
96,522.00
97,521.00
98,521.00
99,522.00
100,522.00
101,522.00
102,520.00
103,520.00
104,520.00
105,521.00
106,521.00
107,521.00
108,520.00
109,521.00
110,520.00
111,521.00
112,521.00
113,520.00
114,520.00
115,521.00
116,521.00
117,521.00
118,520.00
119,521.00
120,520.00
121,521.00
122,521.00
123,521.00
124,521.00
125,521.00
126,521.00
127,520.00
128,521.00
129,521.00
130,520.00
131,520.00
132,521.00
133,520.00
134,521.00
135,521.00
136,521.00
137,521.00
138,520.00
139,521.00
140,521.00
141,520.00
142,518.00
143,521.00
144,521.00
145,521.00
146,520.00
147,521.00
148,521.00
149,521.00
150,520.00
151,521.00
152,521.00
153,520.00
154,521.00
155,521.00
156,521.00
157,520.00
158,520.00
159,521.00
160,521.00
161,521.00
162,520.00
163,521.00
164,521.00
165,521.00
166,521.00
167,521.00
168,521.00
169,521.00
170,520.00
171,521.00
172,521.00
173,521.00
174,521.00
175,521.00
176,521.00
177,521.00
178,521.00
179,521.00
180,521.00
181,521.00
182,521.00
183,521.00
184,521.00
185,521.00
186,521.00
187,521.00
188,521.00
189,521.00
190,520.00
191,521.00
192,521.00
193,517.00
194,521.00
195,521.00
196,521.00
197,521.00
198,520.00
199,521.00
200,521.00
201,521.00
202,521.00
203,520.00
204,521.00
205,521.00
206,520.00
207,521.00
208,521.00
209,520.00
210,521.00
211,521.00
212,521.00
213,521.00
214,521.00
215,521.00
216,521.00
217,520.00
218,520.00
219,520.00
220,521.00
221,520.00
222,520.00
223,521.00
224,521.00
225,521.00
226,521.00
227,521.00
228,521.00
229,520.00
230,520.00
231,521.00
232,521.00
233,520.00
234,521.00
235,520.00
236,521.00
237,520.00
238,520.00
239,521.00
240,521.00
241,520.00
242,521.00
243,521.00
244,519.00
245,520.00
246,520.00
247,521.00
248,521.00
249,520.00
250,521.00
251,521.00
252,521.00
253,521.00
254,520.00
255,521.00
256,520.00
257,521.00
258,520.00
259,521.00
260,521.00
261,520.00
262,520.00
263,520.00
264,520.00
265,520.00
266,520.00
267,520.00
268,521.00
269,520.00
270,519.00
271,521.00
272,521.00
273,520.00
274,521.00
275,521.00
276,521.00
277,520.00
278,518.00
279,520.00
280,520.00
281,520.00
282,521.00
283,521.00
284,520.00
285,521.00
286,518.00
287,521.00
288,520.00
289,520.00
290,521.00
291,521.00
292,521.00
293,520.00
294,521.00
295,520.00
296,520.00
297,520.00
298,520.00
299,521.00
300,521.00
301,520.00
302,520.00
303,520.00
304,520.00
305,520.00
306,521.00
307,521.00
308,521.00
309,520.00
310,520.00
311,521.00
312,520.00
313,520.00
314,521.00
315,521.00
316,520.00
317,521.00
318,520.00
319,521.00
320,519.00
321,520.00
322,520.00
323,521.00
324,521.00
325,520.00
326,519.00
327,521.00
328,520.00
329,520.00
330,520.00
331,521.00
332,521.00
333,520.00
334,521.00
335,521.00
336,520.00
337,520.00
338,520.00
339,521.00
340,521.00
341,520.00
342,521.00
343,521.00
344,520.00
345,520.00
346,520.00
347,521.00
348,521.00
349,520.00
350,520.00
351,521.00
352,520.00
353,521.00
354,520.00
355,520.00
356,521.00
357,521.00
358,521.00
359,521.00
360,520.00
361,520.00
362,521.00
363,521.00
364,521.00
365,520.00
366,520.00
367,520.00
368,521.00
369,519.00
370,519.00
371,521.00
372,520.00
373,520.00
374,520.00
375,521.00
376,520.00
377,520.00
378,516.00
379,520.00
380,520.00
381,520.00
382,520.00
383,521.00
384,520.00
385,520.00
386,520.00
387,520.00
388,520.00
389,520.00
390,520.00
391,520.00
392,520.00
393,520.00
394,520.00
395,520.00
396,520.00
397,520.00
398,521.00
399,520.00
400,519.00
401,520.00
402,521.00
403,520.00
404,520.00
405,520.00
406,520.00
407,520.00
408,520.00
409,520.00
410,521.00
411,521.00
412,520.00
413,520.00
414,520.00
415,521.00
416,520.00
417,520.00
418,520.00
419,520.00
420,520.00
421,520.00
422,520.00
423,520.00
424,520.00
425,520.00
426,520.00
427,521.00
428,518.00
429,520.00
430,520.00
431,521.00
432,520.00
433,520.00
434,520.00
435,521.00
436,520.00
437,520.00
438,520.00
439,520.00
440,520.00
441,520.00
442,521.00
443,520.00
444,520.00
445,520.00
446,520.00
447,521.00
448,520.00
449,520.00
450,520.00
451,521.00
452,520.00
453,520.00
454,521.00
455,520.00
456,520.00
457,520.00
458,520.00
459,520.00
460,520.00
461,520.00
462,520.00
463,520.00
464,520.00
465,520.00
466,521.00
467,520.00
468,520.00
469,520.00
470,520.00
471,520.00
472,520.00
473,520.00
474,520.00
475,520.00
476,520.00
477,521.00
478,520.00
479,520.00
480,520.00
481,520.00
482,520.00
483,521.00
484,520.00
485,520.00
486,520.00
487,521.00
488,520.00
489,520.00
490,520.00
491,520.00
492,520.00
493,520.00
494,520.00
495,521.00
496,520.00
497,520.00
498,520.00
499,520.00
500,520.00
501,520.00
502,520.00
503,520.00
504,520.00
505,520.00
506,520.00
507,520.00
508,520.00
509,520.00
510,520.00
511,520.00
512,520.00
513,520.00
514,520.00
515,517.00
516,520.00
517,520.00
518,520.00
519,520.00
520,520.00
521,520.00
522,520.00
523,521.00
524,520.00
525,520.00
526,520.00
527,520.00
528,520.00
529,520.00
530,521.00
531,521.00
532,520.00
533,520.00
534,520.00
535,520.00
536,520.00
537,520.00
538,520.00
539,520.00
540,520.00
541,520.00
542,520.00
543,520.00
544,520.00
545,520.00
546,520.00
547,520.00
548,520.00
549,520.00
550,520.00
551,520.00
552,520.00
553,520.00
554,520.00
555,520.00
556,520.00
557,520.00
558,520.00
559,520.00
560,520.00
561,520.00
562,520.00
563,520.00
564,520.00
565,521.00
566,520.00
567,520.00
568,520.00
569,520.00
570,519.00
571,520.00
572,520.00
573,520.00
574,520.00
575,520.00
576,520.00
577,520.00
578,520.00
579,520.00
580,520.00
581,520.00
582,520.00
583,520.00
584,520.00
585,520.00
586,520.00
587,520.00
588,520.00
589,521.00
590,520.00
591,520.00
592,520.00
593,520.00
594,520.00
595,520.00
596,520.00
597,520.00
598,520.00
599,520.00
600,520.00
601,520.00
602,520.00
603,520.00
604,520.00
605,518.00
606,520.00
607,520.00
608,520.00
609,521.00
610,520.00
611,520.00
612,520.00
613,520.00
614,520.00
615,520.00
616,520.00
617,520.00
618,521.00
619,520.00
620,519.00
621,520.00
622,517.00
623,520.00
624,520.00
625,520.00
626,520.00
627,520.00
628,520.00
629,520.00
630,520.00
631,520.00
632,520.00
633,520.00
634,520.00
635,520.00
636,520.00
637,520.00
638,520.00
639,520.00
640,520.00
641,520.00
642,520.00
643,520.00
644,519.00
645,520.00
646,520.00
647,520.00
648,520.00
649,520.00
650,520.00
651,520.00
652,520.00
653,520.00
654,520.00
655,520.00
656,520.00
657,520.00
658,520.00
659,520.00
660,520.00
661,520.00
662,520.00
663,520.00
664,520.00
665,520.00
666,520.00
667,520.00
668,520.00
669,520.00
670,520.00
671,520.00
672,520.00
673,520.00
674,520.00
675,520.00
676,520.00
677,520.00
678,520.00
679,520.00
680,520.00
681,520.00
682,520.00
683,520.00
684,520.00
685,520.00
686,520.00
687,520.00
688,520.00
689,520.00
690,517.00
691,520.00
692,520.00
693,520.00
694,520.00
695,520.00
696,520.00
697,520.00
698,520.00
699,520.00
700,520.00
701,520.00
702,520.00
703,520.00
704,519.00
705,520.00
706,520.00
707,520.00
708,520.00
709,520.00
710,520.00
711,520.00
712,520.00
713,520.00
714,520.00
715,520.00
716,520.00
717,520.00
718,520.00
719,520.00
720,519.00
721,520.00
722,520.00
723,520.00
724,520.00
725,520.00
726,520.00
727,520.00
728,520.00
729,520.00
730,520.00
731,520.00
732,520.00
733,520.00
734,520.00
735,520.00
736,520.00
737,520.00
738,520.00
739,520.00
740,519.00
741,520.00
742,520.00
743,520.00
744,520.00
745,520.00
746,520.00
747,520.00
748,520.00
749,520.00
750,520.00
751,520.00
752,521.00
753,520.00
754,520.00
755,520.00
756,520.00
757,521.00
758,520.00
759,521.00
760,521.00
761,521.00
762,520.00
763,520.00
764,521.00
765,520.00
766,520.00
767,520.00
768,520.00
769,520.00
770,519.00
771,520.00
772,520.00
773,520.00
774,520.00
775,520.00
776,521.00
777,521.00
778,520.00
779,519.00
780,520.00
781,521.00
782,520.00
783,520.00
784,520.00
785,521.00
786,520.00
787,520.00
788,520.00
789,520.00
790,520.00
791,520.00
792,520.00
793,520.00
794,520.00
795,520.00
796,520.00
797,520.00
798,520.00
799,520.00
800,519.00
801,520.00
802,520.00
803,520.00
804,520.00
805,520.00
806,520.00
807,520.00
808,520.00
809,521.00
810,520.00
811,520.00
812,520.00
813,520.00
814,520.00
815,520.00
816,520.00
817,520.00
818,520.00
819,520.00
820,519.00
821,520.00
822,520.00
823,520.00
824,520.00
825,520.00
826,520.00
827,520.00
828,520.00
829,520.00
830,520.00
831,520.00
832,520.00
833,520.00
834,520.00
835,520.00
836,520.00
837,521.00
838,520.00
839,520.00
840,520.00
841,520.00
842,520.00
843,520.00
844,520.00
845,520.00
846,520.00
847,520.00
848,520.00
849,520.00
850,520.00
851,519.00
852,520.00
853,520.00
854,520.00
855,520.00
856,520.00
857,520.00
858,520.00
859,519.00
860,520.00
861,520.00
862,520.00
863,520.00
864,520.00
865,520.00
866,520.00
867,520.00
868,520.00
869,520.00
870,519.00
871,520.00
872,520.00
873,520.00
874,520.00
875,520.00
876,521.00
877,520.00
878,520.00
879,521.00
880,520.00
881,520.00
882,520.00
883,520.00
884,521.00
885,521.00
886,520.00
887,520.00
888,520.00
889,521.00
890,520.00
891,520.00
892,520.00
893,520.00
894,520.00
895,521.00
896,521.00
897,520.00
898,520.00
899,520.00
900,520.00
901,520.00
902,520.00
903,520.00
904,520.00
905,520.00
906,520.00
907,520.00
908,520.00
909,520.00
910,520.00
911,520.00
912,520.00
913,521.00
914,520.00
915,520.00
916,520.00
917,520.00
918,520.00
919,521.00
920,520.00
921,520.00
922,520.00
923,521.00
924,520.00
925,520.00
926,521.00
927,521.00
928,521.00
929,523.00
930,522.00
931,521.00
932,521.00
933,521.00
934,521.00
935,521.00
936,521.00
937,520.00
938,521.00
939,522.00
940,522.00
941,521.00
942,522.00
943,522.00
944,521.00
945,522.00
946,521.00
947,524.00
948,521.00
949,521.00
950,523.00
951,520.00
952,521.00
953,520.00
954,521.00
955,521.00
956,524.00
957,520.00
958,525.00
959,523.00
960,521.00
961,519.00
962,511.00
963,524.00
964,518.00
965,520.00
966,521.00
967,523.00
968,522.00
969,521.00
970,523.00
971,524.00
972,524.00
973,524.00
974,526.00
975,525.00
976,525.00
977,524.00
978,524.00
979,524.00
980,523.00
981,522.00
982,523.00
983,523.00
984,525.00
985,523.00
986,524.00
987,526.00
988,521.00
989,522.00
990,524.00
991,522.00
992,527.00
993,522.00
994,525.00
995,526.00
996,533.00
997,523.00
998,526.00
999,527.00
1000,526.00
1001,528.00
1002,526.00
1003,525.00
1004,530.00
1005,531.00
1006,529.00
1007,531.00
1008,532.00
1009,532.00
1010,537.00
1011,536.00
1012,533.00
1013,536.00
1014,538.00
1015,538.00
1016,537.00
1017,540.00
1018,548.00
1019,548.00
1020,549.00
1021,550.00
1022,552.00
1023,558.00
1024,568.00
1025,567.00
1026,576.00
1027,583.00
1028,587.00
1029,583.00
1030,593.00
1031,607.00
1032,624.00
1033,630.00
1034,650.00
1035,653.00
1036,659.00
1037,661.00
1038,664.00
1039,669.00
1040,672.00
1041,680.00
1042,689.00
1043,695.00
1044,708.00
1045,715.00
1046,722.00
1047,722.00
1048,724.00
1049,725.00
1050,734.00
1051,739.00
1052,744.00
1053,740.00
1054,741.00
1055,745.00
1056,745.00
1057,749.00
1058,740.00
1059,743.00
1060,748.00
1061,745.00
1062,751.00
1063,754.00
1064,750.00
1065,749.00
1066,749.00
1067,744.00
1068,757.00
1069,750.00
1070,755.00
1071,751.00
1072,763.00
1073,763.00
1074,765.00
1075,765.00
1076,765.00
1077,765.00
1078,766.00
1079,756.00
1080,751.00
1081,751.00
1082,753.00
1083,755.00
1084,770.00
1085,764.00
1086,765.00
1087,770.00
1088,769.00
1089,769.00
1090,766.00
1091,763.00
1092,755.00
1093,757.00
1094,754.00
1095,761.00
1096,753.00
1097,757.00
1098,746.00
1099,756.00
1100,751.00
1101,752.00
1102,752.00
1103,755.00
1104,756.00
1105,751.00
1106,738.00
1107,752.00
1108,752.00
1109,753.00
1110,746.00
1111,750.00
1112,746.00
1113,753.00
1114,746.00
1115,755.00
1116,756.00
1117,741.00
1118,749.00
1119,753.00
1120,738.00
1121,752.00
1122,749.00
1123,742.00
1124,745.00
1125,750.00
1126,757.00
1127,750.00
1128,758.00
1129,754.00
1130,744.00
1131,752.00
1132,749.00
1133,749.00
1134,738.00
1135,741.00
1136,744.00
1137,733.00
1138,731.00
1139,722.00
1140,719.00
1141,722.00
1142,713.00
1143,709.00
1144,699.00
1145,704.00
1146,690.00
1147,684.00
1148,682.00
1149,671.00
1150,666.00
1151,649.00
1152,670.00
1153,659.00
1154,654.00
1155,656.00
1156,650.00
1157,641.00
1158,638.00
1159,633.00
1160,631.00
1161,625.00
1162,630.00
1163,616.00
1164,612.00
1165,616.00
1166,606.00
1167,604.00
1168,598.00
1169,600.00
1170,595.00
1171,595.00
1172,594.00
1173,589.00
1174,591.00
1175,594.00
1176,587.00
1177,589.00
1178,590.00
1179,586.00
1180,607.00
1181,597.00
1182,581.00
1183,580.00
1184,584.00
1185,583.00
1186,587.00
1187,582.00
1188,581.00
1189,583.00
1190,581.00
1191,588.00
1192,580.00
1193,579.00
1194,577.00
1195,582.00
1196,577.00
1197,581.00
1198,577.00
1199,575.00
1200,577.00
1201,570.00
1202,580.00
1203,577.00
1204,584.00
1205,586.00
1206,576.00
1207,575.00
1208,575.00
1209,578.00
1210,581.00
1211,582.00
1212,583.00
1213,585.00
1214,591.00
1215,594.00
1216,596.00
1217,603.00
1218,604.00
1219,608.00
1220,614.00
1221,616.00
1222,625.00
1223,624.00
1224,638.00
1225,645.00
1226,650.00
1227,659.00
1228,680.00
1229,674.00
1230,679.00
1231,690.00
1232,692.00
1233,686.00
1234,702.00
1235,694.00
1236,706.00
1237,714.00
1238,711.00
1239,719.00
1240,719.00
1241,723.00
1242,738.00
1243,734.00
1244,733.00
1245,722.00
1246,729.00
1247,733.00
1248,735.00
1249,733.00
1250,730.00
1251,731.00
1252,739.00
1253,739.00
1254,725.00
1255,732.00
1256,742.00
1257,744.00
1258,749.00
1259,756.00
1260,756.00
1261,751.00
1262,751.00
1263,757.00
1264,753.00
1265,755.00
1266,751.00
1267,753.00
1268,755.00
1269,757.00
1270,724.00
1271,752.00
1272,740.00
1273,743.00
1274,750.00
1275,751.00
1276,748.00
1277,742.00
1278,748.00
1279,740.00
1280,742.00
1281,744.00
1282,736.00
1283,744.00
1284,741.00
1285,747.00
1286,735.00
1287,748.00
1288,739.00
1289,734.00
1290,748.00
1291,741.00
1292,736.00
1293,746.00
1294,739.00
1295,739.00
1296,734.00
1297,742.00
1298,736.00
1299,743.00
1300,735.00
1301,737.00
1302,736.00
1303,734.00
1304,735.00
1305,735.00
1306,738.00
1307,733.00
1308,731.00
1309,724.00
1310,734.00
1311,734.00
1312,728.00
1313,733.00
1314,734.00
1315,728.00
1316,726.00
1317,727.00
1318,748.00
1319,719.00
1320,725.00
1321,722.00
1322,724.00
1323,723.00
1324,727.00
1325,719.00
1326,720.00
1327,715.00
1328,719.00
1329,718.00
1330,720.00
1331,716.00
1332,712.00
1333,707.00
1334,710.00
1335,695.00
1336,694.00
1337,694.00
1338,685.00
1339,679.00
1340,677.00
1341,672.00
1342,668.00
1343,674.00
1344,663.00
1345,658.00
1346,659.00
1347,663.00
1348,646.00
1349,645.00
1350,644.00
1351,644.00
1352,630.00
1353,624.00
1354,633.00
1355,608.00
1356,621.00
1357,629.00
1358,626.00
1359,619.00
1360,624.00
1361,617.00
1362,618.00
1363,614.00
1364,619.00
1365,619.00
1366,627.00
1367,615.00
1368,618.00
1369,615.00
1370,615.00
1371,603.00
1372,604.00
1373,600.00
1374,609.00
1375,613.00
1376,608.00
1377,606.00
1378,600.00
1379,603.00
1380,606.00
1381,605.00
1382,605.00
1383,602.00
1384,603.00
1385,600.00
1386,602.00
1387,605.00
1388,598.00
1389,601.00
1390,604.00
1391,598.00
1392,598.00
1393,607.00
1394,603.00
1395,593.00
1396,601.00
1397,602.00
1398,595.00
1399,601.00
1400,598.00
1401,597.00
1402,595.00
1403,592.00
1404,599.00
1405,595.00
1406,603.00
1407,600.00
1408,604.00
1409,606.00
1410,604.00
1411,604.00
1412,609.00
1413,607.00
1414,608.00
1415,608.00
1416,611.00
1417,617.00
1418,626.00
1419,627.00
1420,631.00
1421,619.00
1422,641.00
1423,643.00
1424,641.00
1425,651.00
1426,657.00
1427,655.00
1428,666.00
1429,649.00
1430,674.00
1431,673.00
1432,681.00
1433,685.00
1434,661.00
1435,686.00
1436,699.00
1437,702.00
1438,697.00
1439,706.00
1440,697.00
1441,704.00
1442,711.00
1443,721.00
1444,715.00
1445,725.00
1446,711.00
1447,720.00
1448,723.00
1449,735.00
1450,741.00
1451,739.00
1452,732.00
1453,740.00
1454,734.00
1455,734.00
1456,736.00
1457,734.00
1458,740.00
1459,735.00
1460,740.00
1461,743.00
1462,745.00
1463,774.00
1464,748.00
1465,747.00
1466,740.00
1467,741.00
1468,742.00
1469,749.00
1470,751.00
1471,751.00
1472,757.00
1473,745.00
1474,755.00
1475,751.00
1476,748.00
1477,751.00
1478,761.00
1479,777.00
1480,765.00
1481,761.00
1482,765.00
1483,758.00
1484,759.00
1485,754.00
1486,754.00
1487,754.00
1488,751.00
1489,756.00
1490,759.00
1491,757.00
1492,747.00
1493,747.00
1494,749.00
1495,761.00
1496,749.00
1497,756.00
1498,747.00
1499,743.00
1500,742.00
1501,749.00
1502,746.00
1503,763.00
1504,742.00
1505,746.00
1506,748.00
1507,745.00
1508,743.00
1509,750.00
1510,745.00
1511,753.00
1512,737.00
1513,745.00
1514,745.00
1515,749.00
1516,739.00
1517,751.00
1518,742.00
1519,742.00
1520,739.00
1521,749.00
1522,741.00
1523,742.00
1524,734.00
1525,737.00
1526,747.00
1527,748.00
1528,743.00
1529,742.00
1530,748.00
1531,751.00
1532,745.00
1533,744.00
1534,759.00
1535,739.00
1536,749.00
1537,743.00
1538,753.00
1539,735.00
1540,745.00
1541,742.00
1542,743.00
1543,739.00
1544,750.00
1545,743.00
1546,741.00
1547,734.00
1548,745.00
1549,735.00
1550,729.00
1551,728.00
1552,723.00
1553,719.00
1554,718.00
1555,708.00
1556,706.00
1557,692.00
1558,701.00
1559,695.00
1560,691.00
1561,689.00
1562,676.00
1563,679.00
1564,678.00
1565,670.00
1566,669.00
1567,663.00
1568,658.00
1569,650.00
1570,653.00
1571,653.00
1572,656.00
1573,643.00
1574,638.00
1575,634.00
1576,639.00
1577,628.00
1578,636.00
1579,634.00
1580,627.00
1581,630.00
1582,627.00
1583,620.00
1584,623.00
1585,622.00
1586,621.00
1587,614.00
1588,615.00
1589,623.00
1590,619.00
1591,619.00
1592,619.00
1593,620.00
1594,613.00
1595,616.00
1596,623.00
1597,616.00
1598,615.00
1599,612.00
1600,617.00
1601,615.00
1602,618.00
1603,618.00
1604,610.00
1605,613.00
1606,600.00
1607,615.00
1608,609.00
1609,616.00
1610,611.00
1611,613.00
1612,621.00
1613,627.00
1614,632.00
1615,628.00
1616,630.00
1617,639.00
1618,634.00
1619,644.00
1620,642.00
1621,645.00
1622,650.00
1623,656.00
1624,658.00
1625,666.00
1626,665.00
1627,679.00
1628,688.00
1629,686.00
1630,689.00
1631,696.00
1632,708.00
1633,715.00
1634,716.00
1635,714.00
1636,722.00
1637,722.00
1638,716.00
1639,725.00
1640,728.00
1641,732.00
1642,729.00
1643,729.00
1644,729.00
1645,737.00
1646,739.00
1647,736.00
1648,739.00
1649,740.00
1650,752.00
1651,735.00
1652,751.00
1653,742.00
1654,743.00
1655,747.00
1656,743.00
1657,759.00
1658,735.00
1659,743.00
1660,740.00
1661,744.00
1662,742.00
1663,752.00
1664,746.00
1665,761.00
1666,751.00
1667,753.00
1668,738.00
1669,746.00
1670,750.00
1671,745.00
1672,734.00
1673,740.00
1674,739.00
1675,737.00
1676,738.00
1677,743.00
1678,743.00
1679,739.00
1680,741.00
1681,736.00
1682,736.00
1683,728.00
1684,748.00
1685,742.00
1686,730.00
1687,735.00
1688,743.00
1689,735.00
1690,737.00
1691,720.00
1692,734.00
1693,733.00
1694,737.00
1695,732.00
1696,734.00
1697,736.00
1698,732.00
1699,729.00
1700,735.00
1701,727.00
1702,740.00
1703,740.00
1704,737.00
1705,732.00
1706,728.00
1707,732.00
1708,734.00
1709,734.00
1710,726.00
1711,722.00
1712,728.00
1713,726.00
1714,724.00
1715,724.00
1716,724.00
1717,729.00
1718,719.00
1719,715.00
1720,728.00
1721,720.00
1722,718.00
1723,722.00
1724,725.00
1725,718.00
1726,719.00
1727,719.00
1728,714.00
1729,719.00
1730,715.00
1731,700.00
1732,699.00
1733,699.00
1734,703.00
1735,699.00
1736,689.00
1737,681.00
1738,688.00
1739,683.00
1740,683.00
1741,665.00
1742,667.00
1743,670.00
1744,664.00
1745,665.00
1746,658.00
1747,656.00
1748,655.00
1749,652.00
1750,646.00
1751,649.00
1752,643.00
1753,647.00
1754,640.00
1755,633.00
1756,641.00
1757,636.00
1758,631.00
1759,631.00
1760,634.00
1761,633.00
1762,628.00
1763,627.00
1764,636.00
1765,624.00
1766,627.00
1767,630.00
1768,620.00
1769,620.00
1770,628.00
1771,630.00
1772,625.00
1773,621.00
1774,603.00
1775,616.00
1776,626.00
1777,625.00
1778,619.00
1779,615.00
1780,612.00
1781,621.00
1782,625.00
1783,625.00
1784,617.00
1785,620.00
1786,614.00
1787,628.00
1788,617.00
1789,607.00
1790,617.00
1791,615.00
1792,615.00
1793,617.00
1794,616.00
1795,613.00
1796,614.00
1797,619.00
1798,631.00
1799,627.00
1800,630.00
1801,629.00
1802,640.00
1803,639.00
1804,639.00
1805,644.00
1806,649.00
1807,652.00
1808,660.00
1809,659.00
1810,666.00
1811,664.00
1812,677.00
1813,678.00
1814,684.00
1815,692.00
1816,689.00
1817,692.00
1818,695.00
1819,704.00
1820,710.00
1821,713.00
1822,713.00
1823,722.00
1824,720.00
1825,727.00
1826,719.00
1827,731.00
1828,730.00
1829,725.00
1830,735.00
1831,735.00
1832,728.00
1833,731.00
1834,734.00
1835,732.00
1836,739.00
1837,726.00
1838,732.00
1839,730.00
1840,734.00
1841,734.00
1842,736.00
1843,741.00
1844,747.00
1845,741.00
1846,733.00
1847,743.00
1848,742.00
1849,733.00
1850,738.00
1851,745.00
1852,748.00
1853,740.00
1854,738.00
1855,742.00
1856,745.00
1857,749.00
1858,746.00
1859,737.00
1860,742.00
1861,737.00
1862,739.00
1863,734.00
1864,736.00
1865,738.00
1866,728.00
1867,729.00
1868,734.00
1869,729.00
1870,741.00
1871,726.00
1872,731.00
1873,744.00
1874,734.00
1875,730.00
1876,736.00
1877,733.00
1878,733.00
1879,733.00
1880,735.00
1881,738.00
1882,741.00
1883,734.00
1884,729.00
1885,728.00
1886,730.00
1887,734.00
1888,728.00
1889,741.00
1890,734.00
1891,732.00
1892,725.00
1893,732.00
1894,739.00
1895,716.00
1896,716.00
1897,735.00
1898,728.00
1899,725.00
1900,721.00
1901,720.00
1902,718.00
1903,730.00
1904,724.00
1905,725.00
1906,720.00
1907,725.00
1908,723.00
1909,726.00
1910,722.00
1911,718.00
1912,719.00
1913,724.00
1914,729.00
1915,713.00
1916,719.00
1917,724.00
1918,723.00
1919,718.00
1920,721.00
1921,718.00
1922,715.00
1923,723.00
1924,716.00
1925,711.00
1926,715.00
1927,709.00
1928,708.00
1929,705.00
1930,705.00
1931,706.00
1932,696.00
1933,699.00
1934,695.00
1935,700.00
1936,686.00
1937,692.00
1938,688.00
1939,686.00
1940,682.00
1941,690.00
1942,685.00
1943,674.00
1944,676.00
1945,677.00
1946,670.00
1947,679.00
1948,667.00
1949,667.00
1950,663.00
1951,664.00
1952,665.00
1953,660.00
1954,661.00
1955,662.00
1956,658.00
1957,664.00
1958,665.00
1959,652.00
1960,657.00
1961,654.00
1962,651.00
1963,649.00
1964,651.00
1965,650.00
1966,652.00
1967,651.00
1968,646.00
1969,644.00
1970,649.00
1971,653.00
1972,654.00
1973,650.00
1974,647.00
1975,648.00
1976,646.00
1977,647.00
1978,647.00
1979,644.00
1980,644.00
1981,643.00
1982,649.00
1983,645.00
1984,647.00
1985,642.00
1986,642.00
1987,647.00
1988,648.00
1989,662.00
1990,649.00
1991,653.00
1992,651.00
1993,655.00
1994,660.00
1995,663.00
1996,662.00
1997,667.00
1998,678.00
1999,668.00
2000,680.00
2001,679.00
2002,686.00
2003,695.00
2004,683.00
2005,697.00
2006,692.00
2007,695.00
2008,696.00
2009,710.00
2010,700.00
2011,702.00
2012,700.00
2013,707.00
2014,707.00
2015,714.00
2016,710.00
2017,706.00
2018,721.00
2019,719.00
2020,725.00
2021,727.00
2022,726.00
2023,732.00
2024,732.00
2025,728.00
2026,730.00
2027,729.00
2028,733.00
2029,729.00
2030,740.00
2031,736.00
2032,736.00
2033,740.00
2034,736.00
2035,734.00
2036,736.00
2037,736.00
2038,736.00
2039,736.00
2040,738.00
2041,745.00
2042,733.00
2043,730.00
2044,736.00
2045,730.00
2046,738.00
2047,734.00
2048,733.00
2049,730.00
2050,739.00
2051,733.00
2052,734.00
2053,732.00
2054,720.00
2055,731.00
2056,733.00
2057,732.00
2058,730.00
2059,723.00
2060,731.00
2061,731.00
2062,729.00
2063,729.00
2064,724.00
2065,727.00
2066,723.00
2067,734.00
2068,735.00
2069,724.00
2070,727.00
2071,729.00
2072,733.00
2073,724.00
2074,726.00
2075,723.00
2076,728.00
2077,733.00
2078,731.00
2079,730.00
2080,735.00
2081,726.00
2082,732.00
2083,724.00
2084,727.00
2085,716.00
2086,728.00
2087,724.00
2088,737.00
2089,723.00
2090,724.00
2091,723.00
2092,724.00
2093,725.00
2094,716.00
2095,720.00
2096,720.00
2097,720.00
2098,727.00
2099,726.00
2100,725.00
2101,723.00
2102,723.00
2103,721.00
2104,721.00
2105,728.00
2106,729.00
2107,722.00
2108,720.00
2109,725.00
2110,721.00
2111,719.00
2112,725.00
2113,719.00
2114,715.00
2115,718.00
2116,714.00
2117,717.00
2118,711.00
2119,707.00
2120,705.00
2121,707.00
2122,703.00
2123,691.00
2124,694.00
2125,686.00
2126,689.00
2127,676.00
2128,674.00
2129,672.00
2130,672.00
2131,670.00
2132,663.00
2133,656.00
2134,665.00
2135,657.00
2136,655.00
2137,656.00
2138,657.00
2139,655.00
2140,646.00
2141,646.00
2142,649.00
2143,645.00
2144,645.00
2145,632.00
2146,643.00
2147,640.00
2148,639.00
2149,645.00
2150,641.00
2151,641.00
2152,633.00
2153,637.00
2154,643.00
2155,637.00
2156,636.00
2157,640.00
2158,636.00
2159,631.00
2160,633.00
2161,640.00
2162,640.00
2163,635.00
2164,634.00
2165,635.00
2166,634.00
2167,634.00
2168,632.00
2169,627.00
2170,617.00
2171,629.00
2172,629.00
2173,636.00
2174,632.00
2175,636.00
2176,627.00
2177,627.00
2178,626.00
2179,631.00
2180,622.00
2181,634.00
2182,635.00
2183,633.00
2184,637.00
2185,638.00
2186,641.00
2187,643.00
2188,645.00
2189,648.00
2190,652.00
2191,651.00
2192,657.00
2193,658.00
2194,661.00
2195,667.00
2196,665.00
2197,672.00
2198,671.00
2199,678.00
2200,678.00
2201,688.00
2202,691.00
2203,687.00
2204,703.00
2205,701.00
2206,708.00
2207,705.00
2208,710.00
2209,719.00
2210,721.00
2211,727.00
2212,721.00
2213,723.00
2214,730.00
2215,727.00
2216,722.00
2217,724.00
2218,729.00
2219,727.00
2220,733.00
2221,737.00
2222,738.00
2223,731.00
2224,727.00
2225,726.00
2226,732.00
2227,739.00
2228,732.00
2229,738.00
2230,731.00
2231,739.00
2232,736.00
2233,729.00
2234,731.00
2235,739.00
2236,730.00
2237,739.00
2238,729.00
2239,735.00
2240,731.00
2241,729.00
2242,739.00
2243,722.00
2244,722.00
2245,725.00
2246,732.00
2247,726.00
2248,728.00
2249,723.00
2250,720.00
2251,731.00
2252,723.00
2253,733.00
2254,727.00
2255,730.00
2256,720.00
2257,720.00
2258,725.00
2259,722.00
2260,723.00
2261,718.00
2262,728.00
2263,718.00
2264,722.00
2265,727.00
2266,727.00
2267,722.00
2268,729.00
2269,722.00
2270,718.00
2271,724.00
2272,719.00
2273,725.00
2274,724.00
2275,722.00
2276,727.00
2277,713.00
2278,717.00
2279,717.00
2280,715.00
2281,712.00
2282,714.00
2283,711.00
2284,710.00
2285,713.00
2286,711.00
2287,719.00
2288,712.00
2289,713.00
2290,711.00
2291,709.00
2292,710.00
2293,707.00
2294,718.00
2295,711.00
2296,720.00
2297,722.00
2298,707.00
2299,710.00
2300,705.00
2301,702.00
2302,713.00
2303,710.00
2304,706.00
2305,709.00
2306,705.00
2307,704.00
2308,693.00
2309,699.00
2310,695.00
2311,690.00
2312,697.00
2313,692.00
2314,689.00
2315,679.00
2316,675.00
2317,681.00
2318,667.00
2319,667.00
2320,669.00
2321,657.00
2322,656.00
2323,656.00
2324,649.00
2325,643.00
2326,649.00
2327,642.00
2328,632.00
2329,639.00
2330,635.00
2331,633.00
2332,637.00
2333,633.00
2334,624.00
2335,626.00
2336,624.00
2337,627.00
2338,616.00
2339,624.00
2340,617.00
2341,616.00
2342,619.00
2343,620.00
2344,617.00
2345,621.00
2346,613.00
2347,613.00
2348,610.00
2349,614.00
2350,608.00
2351,604.00
2352,608.00
2353,609.00
2354,607.00
2355,603.00
2356,609.00
2357,607.00
2358,609.00
2359,610.00
2360,606.00
2361,604.00
2362,608.00
2363,605.00
2364,608.00
2365,604.00
2366,604.00
2367,604.00
2368,608.00
2369,606.00
2370,605.00
2371,609.00
2372,601.00
2373,609.00
2374,608.00
2375,607.00
2376,611.00
2377,616.00
2378,615.00
2379,613.00
2380,615.00
2381,629.00
2382,630.00
2383,642.00
2384,642.00
2385,645.00
2386,651.00
2387,656.00
2388,659.00
2389,667.00
2390,674.00
2391,676.00
2392,687.00
2393,681.00
2394,697.00
2395,694.00
2396,699.00
2397,699.00
2398,697.00
2399,704.00
2400,712.00
2401,705.00
2402,716.00
2403,713.00
2404,720.00
2405,717.00
2406,717.00
2407,724.00
2408,728.00
2409,718.00
2410,717.00
2411,721.00
2412,730.00
2413,720.00
2414,726.00
2415,722.00
2416,723.00
2417,728.00
2418,732.00
2419,716.00
2420,717.00
2421,727.00
2422,718.00
2423,718.00
2424,727.00
2425,730.00
2426,728.00
2427,732.00
2428,737.00
2429,734.00
2430,732.00
2431,735.00
2432,733.00
2433,730.00
2434,728.00
2435,727.00
2436,726.00
2437,734.00
2438,739.00
2439,724.00
2440,729.00
2441,735.00
2442,724.00
2443,728.00
2444,729.00
2445,724.00
2446,711.00
2447,729.00
2448,728.00
2449,725.00
2450,725.00
2451,722.00
2452,721.00
2453,725.00
2454,727.00
2455,727.00
2456,717.00
2457,719.00
2458,720.00
2459,712.00
2460,721.00
2461,721.00
2462,719.00
2463,716.00
2464,713.00
2465,723.00
2466,720.00
2467,715.00
2468,717.00
2469,715.00
2470,715.00
2471,718.00
2472,717.00
2473,707.00
2474,720.00
2475,710.00
2476,711.00
2477,715.00
2478,716.00
2479,716.00
2480,713.00
2481,709.00
2482,709.00
2483,704.00
2484,708.00
2485,719.00
2486,708.00
2487,702.00
2488,700.00
2489,701.00
2490,695.00
2491,704.00
2492,695.00
2493,696.00
2494,697.00
2495,691.00
2496,687.00
2497,682.00
2498,680.00
2499,677.00
2500,668.00
2501,672.00
2502,664.00
2503,662.00
2504,650.00
2505,653.00
2506,648.00
2507,642.00
2508,646.00
2509,631.00
2510,631.00
2511,630.00
2512,637.00
2513,627.00
2514,628.00
2515,625.00
2516,622.00
2517,626.00
2518,617.00
2519,624.00
2520,618.00
2521,613.00
2522,622.00
2523,612.00
2524,605.00
2525,615.00
2526,609.00
2527,601.00
2528,608.00
2529,623.00
2530,605.00
2531,607.00
2532,612.00
2533,607.00
2534,604.00
2535,605.00
2536,607.00
2537,604.00
2538,602.00
2539,612.00
2540,612.00
2541,609.00
2542,609.00
2543,612.00
2544,615.00
2545,610.00
2546,604.00
2547,610.00
2548,612.00
2549,614.00
2550,618.00
2551,610.00
2552,618.00
2553,621.00
2554,618.00
2555,618.00
2556,608.00
2557,627.00
2558,620.00
2559,628.00
2560,630.00
2561,634.00
2562,636.00
2563,636.00
2564,653.00
2565,646.00
2566,641.00
2567,652.00
2568,652.00
2569,651.00
2570,653.00
2571,660.00
2572,685.00
2573,672.00
2574,660.00
2575,678.00
2576,677.00
2577,680.00
2578,684.00
2579,690.00
2580,688.00
2581,691.00
2582,707.00
2583,704.00
2584,704.00
2585,705.00
2586,716.00
2587,713.00
2588,711.00
2589,720.00
2590,722.00
2591,720.00
2592,728.00
2593,728.00
2594,721.00
2595,732.00
2596,732.00
2597,734.00
2598,729.00
2599,735.00
2600,737.00
2601,734.00
2602,734.00
2603,738.00
2604,722.00
2605,726.00
2606,732.00
2607,733.00
2608,729.00
2609,736.00
2610,731.00
2611,730.00
2612,724.00
2613,736.00
2614,727.00
2615,727.00
2616,729.00
2617,710.00
2618,727.00
2619,734.00
2620,724.00
2621,728.00
2622,721.00
2623,733.00
2624,724.00
2625,725.00
2626,722.00
2627,723.00
2628,729.00
2629,725.00
2630,719.00
2631,721.00
2632,723.00
2633,722.00
2634,728.00
2635,719.00
2636,717.00
2637,726.00
2638,719.00
2639,718.00
2640,721.00
2641,723.00
2642,702.00
2643,725.00
2644,721.00
2645,722.00
2646,715.00
2647,714.00
2648,716.00
2649,724.00
2650,718.00
2651,705.00
2652,716.00
2653,710.00
2654,711.00
2655,721.00
2656,709.00
2657,711.00
2658,710.00
2659,708.00
2660,703.00
2661,717.00
2662,715.00
2663,713.00
2664,716.00
2665,715.00
2666,706.00
2667,714.00
2668,720.00
2669,712.00
2670,715.00
2671,707.00
2672,700.00
2673,705.00
2674,704.00
2675,712.00
2676,694.00
2677,700.00
2678,691.00
2679,679.00
2680,688.00
2681,686.00
2682,679.00
2683,673.00
2684,668.00
2685,665.00
2686,662.00
2687,660.00
2688,658.00
2689,649.00
2690,648.00
2691,648.00
2692,651.00
2693,649.00
2694,640.00
2695,643.00
2696,635.00
2697,639.00
2698,638.00
2699,633.00
2700,641.00
2701,636.00
2702,637.00
2703,640.00
2704,634.00
2705,630.00
2706,632.00
2707,636.00
2708,632.00
2709,629.00
2710,638.00
2711,629.00
2712,631.00
2713,637.00
2714,631.00
2715,624.00
2716,628.00
2717,632.00
2718,627.00
2719,629.00
2720,629.00
2721,625.00
2722,632.00
2723,622.00
2724,625.00
2725,629.00
2726,624.00
2727,626.00
2728,622.00
2729,625.00
2730,623.00
2731,624.00
2732,630.00
2733,630.00
2734,633.00
2735,629.00
2736,622.00
2737,624.00
2738,628.00
2739,633.00
2740,632.00
2741,624.00
2742,639.00
2743,629.00
2744,628.00
2745,632.00
2746,635.00
2747,627.00
2748,633.00
2749,635.00
2750,639.00
2751,647.00
2752,649.00
2753,645.00
2754,656.00
2755,657.00
2756,661.00
2757,668.00
2758,674.00
2759,681.00
2760,680.00
2761,685.00
2762,692.00
2763,680.00
2764,689.00
2765,704.00
2766,698.00
2767,704.00
2768,707.00
2769,709.00
2770,706.00
2771,713.00
2772,716.00
2773,712.00
2774,713.00
2775,720.00
2776,726.00
2777,721.00
2778,732.00
2779,722.00
2780,721.00
2781,724.00
2782,725.00
2783,726.00
2784,728.00
2785,726.00
2786,731.00
2787,724.00
2788,724.00
2789,728.00
2790,722.00
2791,722.00
2792,725.00
2793,733.00
2794,723.00
2795,723.00
2796,728.00
2797,719.00
2798,722.00
2799,720.00
2800,725.00
2801,726.00
2802,724.00
2803,724.00
2804,724.00
2805,718.00
2806,725.00
2807,718.00
2808,718.00
2809,719.00
2810,732.00
2811,717.00
2812,717.00
2813,723.00
2814,724.00
2815,726.00
2816,719.00
2817,717.00
2818,712.00
2819,718.00
2820,718.00
2821,715.00
2822,714.00
2823,719.00
2824,719.00
2825,713.00
2826,713.00
2827,716.00
2828,718.00
2829,713.00
2830,721.00
2831,713.00
2832,711.00
2833,717.00
2834,715.00
2835,701.00
2836,716.00
2837,712.00
2838,710.00
2839,719.00
2840,717.00
2841,711.00
2842,705.00
2843,706.00
2844,714.00
2845,707.00
2846,705.00
2847,707.00
2848,704.00
2849,701.00
2850,696.00
2851,708.00
2852,702.00
2853,704.00
2854,712.00
2855,704.00
2856,706.00
2857,708.00
2858,709.00
2859,698.00
2860,701.00
2861,707.00
2862,702.00
2863,698.00
2864,698.00
2865,694.00
2866,696.00
2867,703.00
2868,693.00
2869,698.00
2870,689.00
2871,692.00
2872,688.00
2873,692.00
2874,688.00
2875,680.00
2876,689.00
2877,677.00
2878,679.00
2879,677.00
2880,674.00
2881,673.00
2882,662.00
2883,663.00
2884,665.00
2885,658.00
2886,659.00
2887,654.00
2888,656.00
2889,644.00
2890,645.00
2891,650.00
2892,650.00
2893,650.00
2894,648.00
2895,644.00
2896,637.00
2897,646.00
2898,643.00
2899,638.00
2900,618.00
2901,639.00
2902,636.00
2903,633.00
2904,635.00
2905,630.00
2906,625.00
2907,636.00
2908,638.00
2909,637.00
2910,629.00
2911,637.00
2912,634.00
2913,626.00
2914,633.00
2915,632.00
2916,627.00
2917,629.00
2918,627.00
2919,626.00
2920,627.00
2921,629.00
2922,628.00
2923,624.00
2924,609.00
2925,628.00
2926,627.00
2927,625.00
2928,629.00
2929,633.00
2930,625.00
2931,626.00
2932,629.00
2933,625.00
2934,628.00
2935,627.00
2936,627.00
2937,624.00
2938,630.00
2939,630.00
2940,633.00
2941,636.00
2942,636.00
2943,627.00
2944,624.00
2945,632.00
2946,631.00
2947,639.00
2948,632.00
2949,631.00
2950,626.00
2951,640.00
2952,636.00
2953,634.00
2954,637.00
2955,642.00
2956,646.00
2957,641.00
2958,637.00
2959,648.00
2960,647.00
2961,650.00
2962,649.00
2963,654.00
2964,651.00
2965,658.00
2966,662.00
2967,663.00
2968,671.00
2969,657.00
2970,673.00
2971,676.00
2972,690.00
2973,694.00
2974,698.00
2975,705.00
2976,708.00
2977,716.00
2978,718.00
2979,715.00
2980,721.00
2981,716.00
2982,726.00
2983,723.00
2984,723.00
2985,723.00
2986,729.00
2987,732.00
2988,735.00
2989,739.00
2990,744.00
2991,737.00
2992,740.00
2993,741.00
2994,738.00
2995,744.00
2996,751.00
2997,745.00
2998,745.00
2999,746.00
3000,751.00
3001,744.00
3002,747.00
3003,749.00
3004,746.00
3005,750.00
3006,746.00
3007,747.00
3008,746.00
3009,743.00
3010,747.00
3011,745.00
3012,743.00
3013,753.00
3014,746.00
3015,741.00
3016,746.00
3017,749.00
3018,743.00
3019,747.00
3020,750.00
3021,748.00
3022,748.00
3023,747.00
3024,751.00
3025,748.00
3026,745.00
3027,747.00
3028,738.00
3029,746.00
3030,742.00
3031,743.00
3032,742.00
3033,737.00
3034,737.00
3035,740.00
3036,739.00
3037,742.00
3038,744.00
3039,734.00
3040,733.00
3041,744.00
3042,732.00
3043,744.00
3044,735.00
3045,737.00
3046,733.00
3047,731.00
3048,735.00
3049,735.00
3050,738.00
3051,737.00
3052,740.00
3053,737.00
3054,742.00
3055,739.00
3056,742.00
3057,747.00
3058,746.00
3059,739.00
3060,737.00
3061,751.00
3062,744.00
3063,739.00
3064,745.00
3065,748.00
3066,755.00
3067,748.00
3068,745.00
3069,745.00
3070,734.00
3071,739.00
3072,737.00
3073,731.00
3074,728.00
3075,729.00
3076,719.00
3077,723.00
3078,716.00
3079,720.00
3080,709.00
3081,708.00
3082,710.00
3083,697.00
3084,692.00
3085,696.00
3086,686.00
3087,677.00
3088,687.00
3089,681.00
3090,675.00
3091,670.00
3092,672.00
3093,666.00
3094,666.00
3095,669.00
3096,659.00
3097,656.00
3098,655.00
3099,655.00
3100,647.00
3101,651.00
3102,641.00
3103,641.00
3104,657.00
3105,639.00
3106,643.00
3107,637.00
3108,631.00
3109,632.00
3110,633.00
3111,635.00
3112,633.00
3113,632.00
3114,635.00
3115,627.00
3116,630.00
3117,633.00
3118,626.00
3119,633.00
3120,627.00
3121,627.00
3122,628.00
3123,627.00
3124,625.00
3125,623.00
3126,630.00
3127,625.00
3128,622.00
3129,632.00
3130,628.00
3131,628.00
3132,637.00
3133,632.00
3134,637.00
3135,645.00
3136,651.00
3137,652.00
3138,663.00
3139,664.00
3140,677.00
3141,693.00
3142,695.00
3143,704.00
3144,707.00
3145,714.00
3146,723.00
3147,739.00
3148,748.00
3149,742.00
3150,746.00
3151,755.00
3152,752.00
3153,751.00
3154,763.00
3155,755.00
3156,757.00
3157,766.00
3158,767.00
3159,763.00
3160,768.00
3161,764.00
3162,762.00
3163,768.00
3164,762.00
3165,759.00
3166,762.00
3167,758.00
3168,770.00
3169,761.00
3170,759.00
3171,762.00
3172,759.00
3173,755.00
3174,758.00
3175,755.00
3176,750.00
3177,741.00
3178,755.00
3179,760.00
3180,742.00
3181,752.00
3182,756.00
3183,752.00
3184,752.00
3185,755.00
3186,760.00
3187,747.00
3188,738.00
3189,744.00
3190,748.00
3191,747.00
3192,745.00
3193,753.00
3194,742.00
3195,745.00
3196,750.00
3197,743.00
3198,746.00
3199,752.00
3200,744.00
3201,743.00
3202,746.00
3203,748.00
3204,737.00
3205,750.00
3206,742.00
3207,741.00
3208,739.00
3209,734.00
3210,742.00
3211,744.00
3212,745.00
3213,741.00
3214,735.00
3215,738.00
3216,746.00
3217,735.00
3218,739.00
3219,729.00
3220,735.00
3221,736.00
3222,735.00
3223,733.00
3224,729.00
3225,731.00
3226,729.00
3227,733.00
3228,718.00
3229,728.00
3230,731.00
3231,725.00
3232,727.00
3233,705.00
3234,727.00
3235,720.00
3236,741.00
3237,715.00
3238,716.00
3239,719.00
3240,711.00
3241,713.00
3242,713.00
3243,714.00
3244,713.00
3245,698.00
3246,722.00
3247,707.00
3248,706.00
3249,703.00
3250,700.00
3251,704.00
3252,703.00
3253,696.00
3254,698.00
3255,696.00
3256,686.00
3257,689.00
3258,690.00
3259,694.00
3260,685.00
3261,684.00
3262,689.00
3263,676.00
3264,682.00
3265,687.00
3266,675.00
3267,685.00
3268,682.00
3269,672.00
3270,669.00
3271,671.00
3272,665.00
3273,666.00
3274,661.00
3275,658.00
3276,659.00
3277,661.00
3278,662.00
3279,653.00
3280,652.00
3281,659.00
3282,651.00
3283,656.00
3284,647.00
3285,647.00
3286,641.00
3287,641.00
3288,651.00
3289,644.00
3290,643.00
3291,636.00
3292,640.00
3293,639.00
3294,637.00
3295,635.00
3296,627.00
3297,631.00
3298,630.00
3299,628.00
3300,627.00
3301,627.00
3302,631.00
3303,629.00
3304,623.00
3305,622.00
3306,627.00
3307,607.00
3308,618.00
3309,619.00
3310,626.00
3311,617.00
3312,610.00
3313,612.00
3314,612.00
3315,619.00
3316,617.00
3317,617.00
3318,608.00
3319,610.00
3320,615.00
3321,610.00
3322,614.00
3323,615.00
3324,611.00
3325,607.00
3326,609.00
3327,608.00
3328,605.00
3329,606.00
3330,608.00
3331,604.00
3332,605.00
3333,610.00
3334,612.00
3335,605.00
3336,601.00
3337,606.00
3338,604.00
3339,604.00
3340,608.00
3341,605.00
3342,609.00
3343,607.00
3344,601.00
3345,605.00
3346,609.00
3347,613.00
3348,618.00
3349,616.00
3350,623.00
3351,635.00
3352,643.00
3353,663.00
3354,665.00
3355,691.00
3356,703.00
3357,709.00
3358,717.00
3359,727.00
3360,733.00
3361,738.00
3362,743.00
3363,738.00
3364,745.00
3365,754.00
3366,757.00
3367,755.00
3368,756.00
3369,766.00
3370,757.00
3371,771.00
3372,762.00
3373,764.00
3374,767.00
3375,762.00
3376,762.00
3377,764.00
3378,762.00
3379,760.00
3380,762.00
3381,758.00
3382,758.00
3383,762.00
3384,760.00
3385,754.00
3386,758.00
3387,747.00
3388,751.00
3389,754.00
3390,753.00
3391,748.00
3392,738.00
3393,751.00
3394,753.00
3395,749.00
3396,751.00
3397,746.00
3398,752.00
3399,753.00
3400,747.00
3401,748.00
3402,751.00
3403,748.00
3404,748.00
3405,760.00
3406,750.00
3407,747.00
3408,743.00
3409,748.00
3410,743.00
3411,749.00
3412,751.00
3413,748.00
3414,742.00
3415,747.00
3416,745.00
3417,749.00
3418,738.00
3419,741.00
3420,748.00
3421,745.00
3422,745.00
3423,746.00
3424,741.00
3425,737.00
3426,739.00
3427,740.00
3428,744.00
3429,734.00
3430,741.00
3431,736.00
3432,729.00
3433,743.00
3434,737.00
3435,733.00
3436,729.00
3437,732.00
3438,735.00
3439,730.00
3440,737.00
3441,726.00
3442,724.00
3443,718.00
3444,729.00
3445,722.00
3446,720.00
3447,723.00
3448,719.00
3449,716.00
3450,713.00
3451,715.00
3452,706.00
3453,707.00
3454,719.00
3455,715.00
3456,706.00
3457,698.00
3458,709.00
3459,703.00
3460,701.00
3461,698.00
3462,702.00
3463,694.00
3464,695.00
3465,701.00
3466,684.00
3467,690.00
3468,691.00
3469,686.00
3470,682.00
3471,685.00
3472,684.00
3473,678.00
3474,679.00
3475,680.00
3476,674.00
3477,676.00
3478,672.00
3479,672.00
3480,675.00
3481,672.00
3482,667.00
3483,667.00
3484,662.00
3485,666.00
3486,660.00
3487,662.00
3488,651.00
3489,657.00
3490,657.00
3491,655.00
3492,648.00
3493,649.00
3494,647.00
3495,646.00
3496,654.00
3497,640.00
3498,651.00
3499,643.00
3500,640.00
3501,643.00
3502,633.00
3503,634.00
3504,633.00
3505,630.00
3506,639.00
3507,634.00
3508,627.00
3509,623.00
3510,628.00
3511,615.00
3512,627.00
3513,629.00
3514,617.00
3515,618.00
3516,611.00
3517,620.00
3518,613.00
3519,615.00
3520,607.00
3521,616.00
3522,612.00
3523,616.00
3524,614.00
3525,608.00
3526,607.00
3527,608.00
3528,608.00
3529,599.00
3530,595.00
3531,603.00
3532,602.00
3533,595.00
3534,606.00
3535,595.00
3536,590.00
3537,591.00
3538,594.00
3539,593.00
3540,589.00
3541,587.00
3542,594.00
3543,592.00
3544,591.00
3545,591.00
3546,589.00
3547,586.00
3548,594.00
3549,585.00
3550,586.00
3551,585.00
3552,582.00
3553,579.00
3554,584.00
3555,585.00
3556,585.00
3557,583.00
3558,584.00
3559,586.00
3560,585.00
3561,586.00
3562,585.00
3563,592.00
3564,602.00
3565,610.00
3566,614.00
3567,626.00
3568,629.00
3569,641.00
3570,651.00
3571,663.00
3572,679.00
3573,688.00
3574,699.00
3575,712.00
3576,726.00
3577,741.00
3578,742.00
3579,746.00
3580,749.00
3581,753.00
3582,764.00
3583,758.00
3584,759.00
3585,760.00
3586,762.00
3587,770.00
3588,763.00
3589,766.00
3590,764.00
3591,761.00
3592,763.00
3593,761.00
3594,764.00
3595,764.00
3596,766.00
3597,765.00
3598,772.00
3599,760.00
3600,762.00
3601,751.00
3602,759.00
3603,756.00
3604,762.00
3605,753.00
3606,757.00
3607,758.00
3608,761.00
3609,749.00
3610,753.00
3611,758.00
3612,755.00
3613,751.00
3614,749.00
3615,747.00
3616,748.00
3617,753.00
3618,751.00
3619,744.00
3620,746.00
3621,750.00
3622,755.00
3623,750.00
3624,759.00
3625,757.00
3626,754.00
3627,752.00
3628,753.00
3629,758.00
3630,745.00
3631,749.00
3632,751.00
3633,752.00
3634,753.00
3635,750.00
3636,747.00
3637,745.00
3638,732.00
3639,745.00
3640,742.00
3641,736.00
3642,740.00
3643,740.00
3644,740.00
3645,738.00
3646,741.00
3647,733.00
3648,741.00
3649,736.00
3650,743.00
3651,731.00
3652,730.00
3653,732.00
3654,734.00
3655,735.00
3656,741.00
3657,727.00
3658,726.00
3659,733.00
3660,733.00
3661,721.00
3662,721.00
3663,719.00
3664,717.00
3665,715.00
3666,719.00
3667,709.00
3668,711.00
3669,705.00
3670,709.00
3671,708.00
3672,705.00
3673,701.00
3674,701.00
3675,698.00
3676,698.00
3677,698.00
3678,690.00
3679,687.00
3680,688.00
3681,694.00
3682,691.00
3683,684.00
3684,676.00
3685,684.00
3686,675.00
3687,675.00
3688,676.00
3689,684.00
3690,666.00
3691,665.00
3692,663.00
3693,661.00
3694,653.00
3695,658.00
3696,655.00
3697,653.00
3698,651.00
3699,657.00
3700,649.00
3701,650.00
3702,641.00
3703,642.00
3704,635.00
3705,640.00
3706,632.00
3707,637.00
3708,639.00
3709,631.00
3710,630.00
3711,627.00
3712,627.00
3713,629.00
3714,623.00
3715,625.00
3716,625.00
3717,622.00
3718,624.00
3719,621.00
3720,620.00
3721,617.00
3722,616.00
3723,615.00
3724,611.00
3725,610.00
3726,612.00
3727,611.00
3728,607.00
3729,607.00
3730,613.00
3731,614.00
3732,606.00
3733,608.00
3734,613.00
3735,603.00
3736,604.00
3737,606.00
3738,609.00
3739,602.00
3740,602.00
3741,602.00
3742,601.00
3743,603.00
3744,605.00
3745,598.00
3746,599.00
3747,602.00
3748,600.00
3749,595.00
3750,603.00
3751,597.00
3752,605.00
3753,595.00
3754,600.00
3755,600.00
3756,595.00
3757,593.00
3758,600.00
3759,609.00
3760,599.00
3761,598.00
3762,611.00
3763,610.00
3764,617.00
3765,623.00
3766,628.00
3767,631.00
3768,634.00
3769,658.00
3770,666.00
3771,676.00
3772,681.00
3773,690.00
3774,701.00
3775,706.00
3776,715.00
3777,725.00
3778,730.00
3779,740.00
3780,742.00
3781,743.00
3782,752.00
3783,758.00
3784,765.00
3785,752.00
3786,761.00
3787,753.00
3788,754.00
3789,760.00
3790,758.00
3791,755.00
3792,768.00
3793,762.00
3794,757.00
3795,757.00
3796,760.00
3797,757.00
3798,756.00
3799,756.00
3800,750.00
3801,753.00
3802,741.00
3803,753.00
3804,754.00
3805,752.00
3806,755.00
3807,749.00
3808,739.00
3809,753.00
3810,742.00
3811,745.00
3812,752.00
3813,745.00
3814,754.00
3815,735.00
3816,737.00
3817,740.00
3818,747.00
3819,745.00
3820,748.00
3821,731.00
3822,741.00
3823,738.00
3824,743.00
3825,744.00
3826,732.00
3827,741.00
3828,738.00
3829,736.00
3830,742.00
3831,731.00
3832,736.00
3833,739.00
3834,741.00
3835,737.00
3836,730.00
3837,725.00
3838,736.00
3839,739.00
3840,735.00
3841,730.00
3842,731.00
3843,731.00
3844,731.00
3845,725.00
3846,725.00
3847,720.00
3848,719.00
3849,721.00
3850,721.00
3851,719.00
3852,721.00
3853,715.00
3854,711.00
3855,718.00
3856,719.00
3857,717.00
3858,707.00
3859,705.00
3860,713.00
3861,709.00
3862,708.00
3863,712.00
3864,700.00
3865,714.00
3866,702.00
3867,702.00
3868,690.00
3869,699.00
3870,692.00
3871,694.00
3872,690.00
3873,693.00
3874,695.00
3875,686.00
3876,682.00
3877,687.00
3878,684.00
3879,677.00
3880,674.00
3881,675.00
3882,675.00
3883,675.00
3884,673.00
3885,670.00
3886,668.00
3887,664.00
3888,668.00
3889,661.00
3890,665.00
3891,661.00
3892,658.00
3893,662.00
3894,662.00
3895,655.00
3896,651.00
3897,656.00
3898,652.00
3899,655.00
3900,646.00
3901,646.00
3902,645.00
3903,645.00
3904,640.00
3905,642.00
3906,638.00
3907,637.00
3908,640.00
3909,637.00
3910,631.00
3911,635.00
3912,634.00
3913,634.00
3914,628.00
3915,635.00
3916,630.00
3917,631.00
3918,629.00
3919,627.00
3920,624.00
3921,621.00
3922,622.00
3923,617.00
3924,627.00
3925,617.00
3926,618.00
3927,618.00
3928,619.00
3929,619.00
3930,618.00
3931,616.00
3932,617.00
3933,619.00
3934,611.00
3935,608.00
3936,614.00
3937,608.00
3938,606.00
3939,608.00
3940,613.00
3941,605.00
3942,609.00
3943,603.00
3944,612.00
3945,607.00
3946,606.00
3947,602.00
3948,599.00
3949,606.00
3950,604.00
3951,603.00
3952,602.00
3953,589.00
3954,600.00
3955,607.00
3956,599.00
3957,602.00
3958,600.00
3959,597.00
3960,602.00
3961,599.00
3962,611.00
3963,602.00
3964,609.00
3965,608.00
3966,607.00
3967,608.00
3968,617.00
3969,618.00
3970,627.00
3971,646.00
3972,650.00
3973,658.00
3974,672.00
3975,683.00
3976,696.00
3977,688.00
3978,703.00
3979,704.00
3980,707.00
3981,708.00
3982,717.00
3983,723.00
3984,719.00
3985,743.00
3986,738.00
3987,755.00
3988,754.00
3989,754.00
3990,755.00
3991,753.00
3992,755.00
3993,761.00
3994,755.00
3995,751.00
3996,762.00
3997,766.00
3998,774.00
3999,760.00
4000,761.00
4001,758.00
4002,761.00
4003,762.00
4004,770.00
4005,765.00
4006,766.00
4007,761.00
4008,761.00
4009,767.00
4010,766.00
4011,762.00
4012,756.00
4013,760.00
4014,761.00
4015,757.00
4016,754.00
4017,760.00
4018,756.00
4019,754.00
4020,761.00
4021,760.00
4022,757.00
4023,749.00
4024,752.00
4025,755.00
4026,752.00
4027,751.00
4028,747.00
4029,751.00
4030,751.00
4031,748.00
4032,751.00
4033,756.00
4034,752.00
4035,761.00
4036,759.00
4037,752.00
4038,752.00
4039,751.00
4040,757.00
4041,751.00
4042,754.00
4043,755.00
4044,750.00
4045,750.00
4046,753.00
4047,748.00
4048,754.00
4049,749.00
4050,746.00
4051,746.00
4052,748.00
4053,754.00
4054,741.00
4055,743.00
4056,755.00
4057,749.00
4058,745.00
4059,748.00
4060,745.00
4061,748.00
4062,743.00
4063,745.00
4064,742.00
4065,737.00
4066,755.00
4067,750.00
4068,738.00
4069,738.00
4070,736.00
4071,742.00
4072,736.00
4073,739.00
4074,736.00
4075,740.00
4076,728.00
4077,733.00
4078,735.00
4079,731.00
4080,731.00
4081,728.00
4082,733.00
4083,726.00
4084,726.00
4085,719.00
4086,721.00
4087,717.00
4088,724.00
4089,720.00
4090,712.00
4091,703.00
4092,718.00
4093,717.00
4094,711.00
4095,719.00
4096,708.00
4097,703.00
4098,699.00
4099,709.00
4100,711.00
4101,701.00
4102,704.00
4103,703.00
4104,700.00
4105,698.00
4106,696.00
4107,692.00
4108,691.00
4109,697.00
4110,690.00
4111,675.00
4112,685.00
4113,687.00
4114,689.00
4115,689.00
4116,683.00
4117,685.00
4118,680.00
4119,677.00
4120,676.00
4121,674.00
4122,679.00
4123,671.00
4124,674.00
4125,665.00
4126,663.00
4127,682.00
4128,669.00
4129,660.00
4130,663.00
4131,663.00
4132,652.00
4133,660.00
4134,660.00
4135,655.00
4136,654.00
4137,658.00
4138,656.00
4139,649.00
4140,646.00
4141,648.00
4142,647.00
4143,642.00
4144,644.00
4145,641.00
4146,645.00
4147,643.00
4148,638.00
4149,653.00
4150,635.00
4151,634.00
4152,630.00
4153,639.00
4154,629.00
4155,631.00
4156,631.00
4157,630.00
4158,631.00
4159,633.00
4160,626.00
4161,624.00
4162,633.00
4163,623.00
4164,639.00
4165,624.00
4166,629.00
4167,626.00
4168,615.00
4169,626.00
4170,617.00
4171,623.00
4172,619.00
4173,627.00
4174,614.00
4175,621.00
4176,615.00
4177,611.00
4178,613.00
4179,611.00
4180,616.00
4181,616.00
4182,617.00
4183,609.00
4184,604.00
4185,612.00
4186,611.00
4187,611.00
4188,613.00
4189,607.00
4190,607.00
4191,613.00
4192,607.00
4193,603.00
4194,616.00
4195,615.00
4196,614.00
4197,622.00
4198,625.00
4199,629.00
4200,642.00
4201,647.00
4202,657.00
4203,667.00
4204,678.00
4205,702.00
4206,706.00
4207,717.00
4208,730.00
4209,739.00
4210,735.00
4211,743.00
4212,750.00
4213,747.00
4214,758.00
4215,757.00
4216,762.00
4217,761.00
4218,770.00
4219,763.00
4220,765.00
4221,765.00
4222,768.00
4223,767.00
4224,770.00
4225,765.00
4226,767.00
4227,773.00
4228,763.00
4229,773.00
4230,769.00
4231,768.00
4232,761.00
4233,768.00
4234,766.00
4235,761.00
4236,770.00
4237,760.00
4238,765.00
4239,760.00
4240,760.00
4241,758.00
4242,756.00
4243,757.00
4244,759.00
4245,755.00
4246,754.00
4247,759.00
4248,753.00
4249,759.00
4250,760.00
4251,754.00
4252,759.00
4253,755.00
4254,757.00
4255,752.00
4256,759.00
4257,760.00
4258,760.00
4259,757.00
4260,758.00
4261,766.00
4262,761.00
4263,756.00
4264,757.00
4265,766.00
4266,758.00
4267,760.00
4268,759.00
4269,755.00
4270,761.00
4271,759.00
4272,759.00
4273,764.00
4274,760.00
4275,756.00
4276,758.00
4277,755.00
4278,762.00
4279,760.00
4280,757.00
4281,750.00
4282,753.00
4283,751.00
4284,750.00
4285,744.00
4286,735.00
4287,741.00
4288,739.00
4289,742.00
4290,739.00
4291,734.00
4292,736.00
4293,736.00
4294,733.00
4295,737.00
4296,731.00
4297,729.00
4298,728.00
4299,720.00
4300,732.00
4301,722.00
4302,720.00
4303,720.00
4304,718.00
4305,713.00
4306,715.00
4307,718.00
4308,712.00
4309,702.00
4310,704.00
4311,702.00
4312,705.00
4313,691.00
4314,703.00
4315,709.00
4316,692.00
4317,699.00
4318,691.00
4319,687.00
4320,689.00
4321,688.00
4322,692.00
4323,686.00
4324,682.00
4325,678.00
4326,676.00
4327,679.00
4328,666.00
4329,677.00
4330,671.00
4331,664.00
4332,666.00
4333,663.00
4334,657.00
4335,663.00
4336,661.00
4337,656.00
4338,658.00
4339,654.00
4340,649.00
4341,647.00
4342,653.00
4343,647.00
4344,647.00
4345,641.00
4346,646.00
4347,640.00
4348,644.00
4349,638.00
4350,641.00
4351,638.00
4352,631.00
4353,636.00
4354,638.00
4355,635.00
4356,630.00
4357,637.00
4358,631.00
4359,639.00
4360,631.00
4361,629.00
4362,634.00
4363,629.00
4364,634.00
4365,628.00
4366,621.00
4367,627.00
4368,613.00
4369,627.00
4370,625.00
4371,626.00
4372,623.00
4373,627.00
4374,629.00
4375,625.00
4376,626.00
4377,627.00
4378,628.00
4379,614.00
4380,622.00
4381,624.00
4382,624.00
4383,623.00
4384,620.00
4385,625.00
4386,629.00
4387,637.00
4388,626.00
4389,624.00
4390,630.00
4391,631.00
4392,637.00
4393,644.00
4394,637.00
4395,641.00
4396,649.00
4397,656.00
4398,659.00
4399,666.00
4400,678.00
4401,682.00
4402,699.00
4403,706.00
4404,709.00
4405,717.00
4406,725.00
4407,731.00
4408,738.00
4409,743.00
4410,751.00
4411,754.00
4412,763.00
4413,762.00
4414,762.00
4415,766.00
4416,763.00
4417,766.00
4418,767.00
4419,765.00
4420,767.00
4421,769.00
4422,770.00
4423,768.00
4424,772.00
4425,768.00
4426,760.00
4427,769.00
4428,767.00
4429,767.00
4430,757.00
4431,754.00
4432,757.00
4433,755.00
4434,763.00
4435,762.00
4436,757.00
4437,752.00
4438,752.00
4439,756.00
4440,749.00
4441,748.00
4442,753.00
4443,751.00
4444,749.00
4445,760.00
4446,748.00
4447,748.00
4448,753.00
4449,755.00
4450,746.00
4451,744.00
4452,749.00
4453,755.00
4454,751.00
4455,748.00
4456,751.00
4457,744.00
4458,752.00
4459,749.00
4460,749.00
4461,750.00
4462,746.00
4463,746.00
4464,749.00
4465,748.00
4466,753.00
4467,754.00
4468,750.00
4469,745.00
4470,740.00
4471,749.00
4472,745.00
4473,752.00
4474,749.00
4475,741.00
4476,746.00
4477,739.00
4478,746.00
4479,743.00
4480,722.00
4481,737.00
4482,736.00
4483,732.00
4484,725.00
4485,734.00
4486,734.00
4487,726.00
4488,726.00
4489,728.00
4490,717.00
4491,720.00
4492,720.00
4493,718.00
4494,715.00
4495,724.00
4496,719.00
4497,712.00
4498,715.00
4499,713.00
4500,707.00
4501,709.00
4502,703.00
4503,699.00
4504,697.00
4505,691.00
4506,688.00
4507,691.00
4508,696.00
4509,687.00
4510,685.00
4511,689.00
4512,687.00
4513,677.00
4514,682.00
4515,677.00
4516,673.00
4517,674.00
4518,672.00
4519,668.00
4520,669.00
4521,651.00
4522,664.00
4523,664.00
4524,665.00
4525,660.00
4526,665.00
4527,655.00
4528,658.00
4529,654.00
4530,650.00
4531,651.00
4532,650.00
4533,648.00
4534,649.00
4535,650.00
4536,648.00
4537,643.00
4538,647.00
4539,644.00
4540,640.00
4541,645.00
4542,648.00
4543,644.00
4544,639.00
4545,644.00
4546,644.00
4547,634.00
4548,634.00
4549,638.00
4550,643.00
4551,634.00
4552,630.00
4553,624.00
4554,636.00
4555,629.00
4556,625.00
4557,627.00
4558,632.00
4559,625.00
4560,630.00
4561,624.00
4562,628.00
4563,626.00
4564,622.00
4565,629.00
4566,620.00
4567,629.00
4568,625.00
4569,621.00
4570,620.00
4571,622.00
4572,622.00
4573,621.00
4574,621.00
4575,628.00
4576,624.00
4577,631.00
4578,630.00
4579,634.00
4580,633.00
4581,644.00
4582,666.00
4583,651.00
4584,658.00
4585,660.00
4586,670.00
4587,684.00
4588,687.00
4589,692.00
4590,707.00
4591,709.00
4592,716.00
4593,726.00
4594,722.00
4595,724.00
4596,731.00
4597,734.00
4598,736.00
4599,736.00
4600,743.00
4601,739.00
4602,747.00
4603,757.00
4604,753.00
4605,747.00
4606,752.00
4607,751.00
4608,760.00
4609,750.00
4610,752.00
4611,746.00
4612,738.00
4613,755.00
4614,749.00
4615,746.00
4616,741.00
4617,743.00
4618,742.00
4619,742.00
4620,744.00
4621,741.00
4622,734.00
4623,748.00
4624,738.00
4625,736.00
4626,732.00
4627,733.00
4628,734.00
4629,724.00
4630,735.00
4631,727.00
4632,728.00
4633,733.00
4634,727.00
4635,728.00
4636,725.00
4637,720.00
4638,724.00
4639,728.00
4640,729.00
4641,729.00
4642,722.00
4643,725.00
4644,720.00
4645,721.00
4646,708.00
4647,712.00
4648,716.00
4649,720.00
4650,725.00
4651,715.00
4652,722.00
4653,719.00
4654,715.00
4655,721.00
4656,718.00
4657,711.00
4658,710.00
4659,713.00
4660,720.00
4661,718.00
4662,709.00
4663,713.00
4664,715.00
4665,712.00
4666,712.00
4667,688.00
4668,703.00
4669,700.00
4670,703.00
4671,703.00
4672,701.00
4673,694.00
4674,698.00
4675,700.00
4676,698.00
4677,701.00
4678,694.00
4679,692.00
4680,693.00
4681,698.00
4682,685.00
4683,688.00
4684,681.00
4685,689.00
4686,692.00
4687,677.00
4688,684.00
4689,675.00
4690,682.00
4691,670.00
4692,675.00
4693,667.00
4694,663.00
4695,664.00
4696,665.00
4697,662.00
4698,660.00
4699,656.00
4700,661.00
4701,655.00
4702,655.00
4703,654.00
4704,657.00
4705,645.00
4706,652.00
4707,651.00
4708,644.00
4709,643.00
4710,647.00
4711,637.00
4712,648.00
4713,644.00
4714,640.00
4715,631.00
4716,636.00
4717,631.00
4718,629.00
4719,632.00
4720,622.00
4721,628.00
4722,620.00
4723,628.00
4724,621.00
4725,623.00
4726,614.00
4727,618.00
4728,618.00
4729,621.00
4730,620.00
4731,606.00
4732,617.00
4733,608.00
4734,611.00
4735,608.00
4736,611.00
4737,609.00
4738,606.00
4739,609.00
4740,603.00
4741,604.00
4742,602.00
4743,602.00
4744,614.00
4745,610.00
4746,599.00
4747,600.00
4748,599.00
4749,601.00
4750,598.00
4751,604.00
4752,599.00
4753,599.00
4754,599.00
4755,598.00
4756,599.00
4757,598.00
4758,595.00
4759,603.00
4760,608.00
4761,603.00
4762,597.00
4763,599.00
4764,607.00
4765,603.00
4766,616.00
4767,623.00
4768,638.00
4769,635.00
4770,652.00
4771,659.00
4772,670.00
4773,679.00
4774,688.00
4775,694.00
4776,701.00
4777,704.00
4778,711.00
4779,723.00
4780,715.00
4781,734.00
4782,733.00
4783,734.00
4784,731.00
4785,743.00
4786,751.00
4787,746.00
4788,749.00
4789,753.00
4790,751.00
4791,753.00
4792,745.00
4793,747.00
4794,745.00
4795,746.00
4796,747.00
4797,742.00
4798,747.00
4799,744.00
4800,750.00
4801,741.00
4802,747.00
4803,730.00
4804,742.00
4805,739.00
4806,742.00
4807,749.00
4808,746.00
4809,743.00
4810,743.00
4811,740.00
4812,744.00
4813,736.00
4814,741.00
4815,738.00
4816,739.00
4817,737.00
4818,737.00
4819,735.00
4820,735.00
4821,737.00
4822,735.00
4823,729.00
4824,732.00
4825,733.00
4826,731.00
4827,732.00
4828,732.00
4829,727.00
4830,729.00
4831,724.00
4832,735.00
4833,725.00
4834,723.00
4835,725.00
4836,722.00
4837,721.00
4838,724.00
4839,732.00
4840,727.00
4841,722.00
4842,728.00
4843,721.00
4844,727.00
4845,720.00
4846,728.00
4847,719.00
4848,720.00
4849,722.00
4850,716.00
4851,721.00
4852,717.00
4853,706.00
4854,728.00
4855,721.00
4856,725.00
4857,725.00
4858,717.00
4859,715.00
4860,734.00
4861,715.00
4862,714.00
4863,709.00
4864,711.00
4865,712.00
4866,707.00
4867,713.00
4868,709.00
4869,705.00
4870,706.00
4871,709.00
4872,700.00
4873,698.00
4874,698.00
4875,699.00
4876,699.00
4877,693.00
4878,694.00
4879,691.00
4880,694.00
4881,690.00
4882,691.00
4883,691.00
4884,683.00
4885,684.00
4886,685.00
4887,700.00
4888,683.00
4889,675.00
4890,677.00
4891,675.00
4892,681.00
4893,682.00
4894,671.00
4895,673.00
4896,668.00
4897,671.00
4898,670.00
4899,662.00
4900,660.00
4901,662.00
4902,656.00
4903,655.00
4904,655.00
4905,652.00
4906,645.00
4907,650.00
4908,659.00
4909,649.00
4910,642.00
4911,638.00
4912,640.00
4913,640.00
4914,640.00
4915,639.00
4916,633.00
4917,632.00
4918,640.00
4919,641.00
4920,624.00
4921,631.00
4922,626.00
4923,625.00
4924,627.00
4925,627.00
4926,630.00
4927,621.00
4928,621.00
4929,623.00
4930,622.00
4931,627.00
4932,615.00
4933,619.00
4934,619.00
4935,614.00
4936,616.00
4937,612.00
4938,608.00
4939,608.00
4940,610.00
4941,609.00
4942,600.00
4943,601.00
4944,602.00
4945,617.00
4946,605.00
4947,600.00
4948,595.00
4949,595.00
4950,586.00
4951,599.00
4952,596.00
4953,599.00
4954,598.00
4955,591.00
4956,591.00
4957,591.00
4958,590.00
4959,585.00
4960,584.00
4961,586.00
4962,585.00
4963,572.00
4964,584.00
4965,589.00
4966,577.00
4967,575.00
4968,584.00
4969,579.00
4970,582.00
4971,571.00
4972,579.00
4973,577.00
4974,576.00
4975,575.00
4976,579.00
4977,579.00
4978,576.00
4979,581.00
4980,578.00
4981,578.00
4982,578.00
4983,576.00
4984,575.00
4985,575.00
4986,575.00
4987,575.00
4988,574.00
4989,574.00
4990,574.00
4991,573.00
4992,572.00
4993,573.00
4994,572.00
4995,572.00
4996,571.00
4997,570.00
4998,570.00
4999,570.00
5000,570.00
