ms,resistance
1,391.0
2,392.00
3,392.00
4,392.00
5,392.00
6,392.00
7,392.00
8,393.00
9,392.00
10,392.00
11,392.00
12,392.00
13,391.00
14,392.00
15,392.00
16,392.00
17,392.00
18,391.00
19,392.00
20,392.00
21,392.00
22,392.00
23,392.00
24,392.00
25,391.00
26,392.00
27,392.00
28,392.00
29,392.00
30,392.00
31,391.00
32,392.00
33,392.00
34,392.00
35,392.00
36,392.00
37,392.00
38,391.00
39,392.00
40,392.00
41,392.00
42,392.00
43,392.00
44,391.00
45,391.00
46,392.00
47,392.00
48,392.00
49,392.00
50,392.00
51,392.00
52,392.00
53,392.00
54,391.00
55,392.00
56,392.00
57,391.00
58,392.00
59,392.00
60,391.00
61,392.00
62,392.00
63,391.00
64,391.00
65,391.00
66,392.00
67,391.00
68,392.00
69,392.00
70,391.00
71,391.00
72,391.00
73,392.00
74,391.00
75,392.00
76,391.00
77,391.00
78,391.00
79,392.00
80,392.00
81,391.00
82,391.00
83,392.00
84,392.00
85,391.00
86,392.00
87,391.00
88,392.00
89,391.00
90,392.00
91,391.00
92,392.00
93,391.00
94,391.00
95,391.00
96,391.00
97,391.00
98,391.00
99,392.00
100,392.00
101,391.00
102,391.00
103,391.00
104,391.00
105,391.00
106,391.00
107,391.00
108,391.00
109,391.00
110,391.00
111,391.00
112,391.00
113,391.00
114,391.00
115,391.00
116,392.00
117,392.00
118,391.00
119,391.00
120,391.00
121,391.00
122,391.00
123,391.00
124,391.00
125,391.00
126,391.00
127,391.00
128,392.00
129,391.00
130,391.00
131,390.00
132,391.00
133,391.00
134,391.00
135,391.00
136,391.00
137,391.00
138,391.00
139,391.00
140,390.00
141,391.00
142,391.00
143,391.00
144,391.00
145,391.00
146,391.00
147,391.00
148,391.00
149,390.00
150,391.00
151,391.00
152,391.00
153,391.00
154,391.00
155,391.00
156,391.00
157,391.00
158,391.00
159,390.00
160,390.00
161,391.00
162,390.00
163,391.00
164,391.00
165,391.00
166,391.00
167,391.00
168,390.00
169,390.00
170,391.00
171,391.00
172,390.00
173,391.00
174,391.00
175,391.00
176,391.00
177,391.00
178,391.00
179,391.00
180,391.00
181,390.00
182,390.00
183,391.00
184,391.00
185,391.00
186,391.00
187,390.00
188,390.00
189,391.00
190,390.00
191,391.00
192,391.00
193,391.00
194,390.00
195,391.00
196,391.00
197,391.00
198,390.00
199,391.00
200,392.00
201,390.00
202,391.00
203,390.00
204,390.00
205,389.00
206,391.00
207,390.00
208,391.00
209,390.00
210,390.00
211,390.00
212,391.00
213,390.00
214,391.00
215,391.00
216,390.00
217,390.00
218,390.00
219,390.00
220,390.00
221,390.00
222,390.00
223,390.00
224,391.00
225,391.00
226,391.00
227,390.00
228,390.00
229,390.00
230,391.00
231,390.00
232,391.00
233,391.00
234,390.00
235,391.00
236,391.00
237,390.00
238,391.00
239,390.00
240,390.00
241,390.00
242,390.00
243,390.00
244,390.00
245,390.00
246,391.00
247,390.00
248,390.00
249,390.00
250,390.00
251,391.00
252,390.00
253,390.00
254,390.00
255,390.00
256,390.00
257,390.00
258,390.00
259,390.00
260,390.00
261,390.00
262,390.00
263,390.00
264,390.00
265,390.00
266,390.00
267,390.00
268,391.00
269,390.00
270,390.00
271,390.00
272,390.00
273,390.00
274,390.00
275,390.00
276,390.00
277,390.00
278,390.00
279,390.00
280,390.00
281,390.00
282,390.00
283,390.00
284,390.00
285,390.00
286,390.00
287,390.00
288,390.00
289,390.00
290,390.00
291,390.00
292,390.00
293,390.00
294,390.00
295,390.00
296,390.00
297,390.00
298,390.00
299,390.00
300,390.00
301,390.00
302,390.00
303,390.00
304,390.00
305,390.00
306,389.00
307,390.00
308,390.00
309,390.00
310,390.00
311,390.00
312,390.00
313,390.00
314,390.00
315,390.00
316,390.00
317,390.00
318,390.00
319,390.00
320,390.00
321,390.00
322,389.00
323,390.00
324,389.00
325,390.00
326,390.00
327,390.00
328,389.00
329,389.00
330,389.00
331,390.00
332,390.00
333,389.00
334,390.00
335,390.00
336,390.00
337,390.00
338,389.00
339,390.00
340,390.00
341,390.00
342,390.00
343,389.00
344,389.00
345,389.00
346,389.00
347,390.00
348,390.00
349,390.00
350,390.00
351,390.00
352,389.00
353,390.00
354,389.00
355,389.00
356,390.00
357,390.00
358,390.00
359,389.00
360,390.00
361,389.00
362,389.00
363,389.00
364,390.00
365,389.00
366,389.00
367,389.00
368,389.00
369,389.00
370,389.00
371,390.00
372,389.00
373,389.00
374,390.00
375,390.00
376,389.00
377,389.00
378,389.00
379,390.00
380,389.00
381,390.00
382,389.00
383,389.00
384,389.00
385,390.00
386,389.00
387,389.00
388,389.00
389,389.00
390,389.00
391,389.00
392,389.00
393,389.00
394,390.00
395,389.00
396,389.00
397,389.00
398,389.00
399,389.00
400,389.00
401,389.00
402,389.00
403,389.00
404,389.00
405,389.00
406,390.00
407,389.00
408,389.00
409,389.00
410,389.00
411,389.00
412,389.00
413,389.00
414,389.00
415,389.00
416,389.00
417,389.00
418,389.00
419,389.00
420,389.00
421,389.00
422,389.00
423,389.00
424,389.00
425,389.00
426,389.00
427,389.00
428,389.00
429,389.00
430,389.00
431,388.00
432,389.00
433,389.00
434,389.00
435,389.00
436,389.00
437,389.00
438,389.00
439,389.00
440,388.00
441,389.00
442,389.00
443,389.00
444,389.00
445,389.00
446,389.00
447,389.00
448,389.00
449,389.00
450,389.00
451,389.00
452,389.00
453,389.00
454,389.00
455,389.00
456,389.00
457,389.00
458,389.00
459,389.00
460,389.00
461,388.00
462,389.00
463,389.00
464,388.00
465,389.00
466,389.00
467,389.00
468,388.00
469,389.00
470,389.00
471,389.00
472,389.00
473,389.00
474,388.00
475,389.00
476,389.00
477,389.00
478,389.00
479,389.00
480,389.00
481,389.00
482,389.00
483,388.00
484,389.00
485,389.00
486,389.00
487,389.00
488,389.00
489,389.00
490,388.00
491,389.00
492,388.00
493,389.00
494,389.00
495,389.00
496,389.00
497,389.00
498,388.00
499,389.00
500,388.00
501,389.00
502,389.00
503,388.00
504,389.00
505,389.00
506,388.00
507,389.00
508,388.00
509,388.00
510,388.00
511,389.00
512,388.00
513,388.00
514,389.00
515,388.00
516,388.00
517,389.00
518,389.00
519,388.00
520,389.00
521,388.00
522,388.00
523,388.00
524,388.00
525,388.00
526,388.00
527,389.00
528,389.00
529,388.00
530,388.00
531,389.00
532,389.00
533,389.00
534,388.00
535,388.00
536,388.00
537,389.00
538,388.00
539,388.00
540,389.00
541,389.00
542,388.00
543,388.00
544,388.00
545,388.00
546,388.00
547,388.00
548,389.00
549,388.00
550,388.00
551,388.00
552,388.00
553,388.00
554,388.00
555,389.00
556,388.00
557,388.00
558,388.00
559,388.00
560,388.00
561,388.00
562,388.00
563,388.00
564,388.00
565,388.00
566,388.00
567,388.00
568,388.00
569,388.00
570,388.00
571,388.00
572,388.00
573,388.00
574,388.00
575,388.00
576,388.00
577,387.00
578,388.00
579,387.00
580,388.00
581,388.00
582,388.00
583,389.00
584,388.00
585,388.00
586,388.00
587,388.00
588,388.00
589,388.00
590,388.00
591,388.00
592,388.00
593,388.00
594,388.00
595,388.00
596,388.00
597,388.00
598,388.00
599,388.00
600,388.00
601,388.00
602,388.00
603,388.00
604,388.00
605,389.00
606,388.00
607,388.00
608,388.00
609,388.00
610,388.00
611,388.00
612,388.00
613,388.00
614,388.00
615,388.00
616,388.00
617,388.00
618,388.00
619,388.00
620,388.00
621,388.00
622,388.00
623,388.00
624,388.00
625,388.00
626,388.00
627,387.00
628,388.00
629,388.00
630,388.00
631,388.00
632,388.00
633,388.00
634,388.00
635,388.00
636,389.00
637,388.00
638,388.00
639,388.00
640,388.00
641,388.00
642,388.00
643,387.00
644,388.00
645,388.00
646,388.00
647,388.00
648,388.00
649,388.00
650,388.00
651,388.00
652,388.00
653,388.00
654,388.00
655,388.00
656,388.00
657,388.00
658,387.00
659,388.00
660,388.00
661,387.00
662,388.00
663,388.00
664,388.00
665,387.00
666,388.00
667,388.00
668,388.00
669,388.00
670,388.00
671,387.00
672,388.00
673,387.00
674,387.00
675,388.00
676,388.00
677,388.00
678,388.00
679,388.00
680,387.00
681,388.00
682,387.00
683,388.00
684,388.00
685,387.00
686,388.00
687,388.00
688,388.00
689,387.00
690,388.00
691,388.00
692,388.00
693,388.00
694,388.00
695,388.00
696,388.00
697,388.00
698,387.00
699,387.00
700,388.00
701,388.00
702,387.00
703,388.00
704,388.00
705,387.00
706,387.00
707,387.00
708,387.00
709,387.00
710,387.00
711,388.00
712,387.00
713,387.00
714,387.00
715,387.00
716,388.00
717,387.00
718,387.00
719,387.00
720,388.00
721,387.00
722,387.00
723,387.00
724,388.00
725,387.00
726,388.00
727,387.00
728,388.00
729,388.00
730,387.00
731,387.00
732,387.00
733,387.00
734,387.00
735,387.00
736,388.00
737,388.00
738,387.00
739,387.00
740,387.00
741,387.00
742,387.00
743,387.00
744,388.00
745,387.00
746,388.00
747,387.00
748,387.00
749,388.00
750,387.00
751,387.00
752,387.00
753,387.00
754,387.00
755,387.00
756,387.00
757,387.00
758,387.00
759,387.00
760,387.00
761,388.00
762,387.00
763,387.00
764,387.00
765,387.00
766,387.00
767,387.00
768,387.00
769,388.00
770,387.00
771,387.00
772,387.00
773,387.00
774,387.00
775,387.00
776,387.00
777,387.00
778,387.00
779,387.00
780,387.00
781,387.00
782,387.00
783,387.00
784,387.00
785,387.00
786,386.00
787,387.00
788,387.00
789,387.00
790,387.00
791,387.00
792,387.00
793,387.00
794,387.00
795,387.00
796,387.00
797,387.00
798,387.00
799,387.00
800,387.00
801,387.00
802,387.00
803,387.00
804,387.00
805,387.00
806,387.00
807,387.00
808,387.00
809,387.00
810,387.00
811,387.00
812,387.00
813,387.00
814,387.00
815,387.00
816,387.00
817,387.00
818,387.00
819,385.00
820,387.00
821,387.00
822,387.00
823,387.00
824,387.00
825,387.00
826,387.00
827,387.00
828,387.00
829,387.00
830,387.00
831,387.00
832,387.00
833,386.00
834,386.00
835,387.00
836,387.00
837,387.00
838,387.00
839,387.00
840,387.00
841,387.00
842,387.00
843,387.00
844,387.00
845,387.00
846,387.00
847,387.00
848,387.00
849,387.00
850,387.00
851,387.00
852,387.00
853,387.00
854,387.00
855,387.00
856,387.00
857,387.00
858,386.00
859,387.00
860,387.00
861,387.00
862,386.00
863,387.00
864,386.00
865,386.00
866,387.00
867,387.00
868,387.00
869,387.00
870,387.00
871,386.00
872,386.00
873,386.00
874,387.00
875,387.00
876,386.00
877,387.00
878,387.00
879,387.00
880,387.00
881,386.00
882,387.00
883,387.00
884,386.00
885,387.00
886,387.00
887,387.00
888,386.00
889,387.00
890,386.00
891,386.00
892,387.00
893,386.00
894,387.00
895,387.00
896,386.00
897,387.00
898,387.00
899,387.00
900,386.00
901,386.00
902,387.00
903,387.00
904,386.00
905,386.00
906,387.00
907,387.00
908,386.00
909,387.00
910,387.00
911,387.00
912,386.00
913,387.00
914,386.00
915,386.00
916,386.00
917,387.00
918,386.00
919,387.00
920,386.00
921,386.00
922,386.00
923,386.00
924,386.00
925,387.00
926,387.00
927,386.00
928,386.00
929,386.00
930,386.00
931,387.00
932,387.00
933,386.00
934,386.00
935,387.00
936,386.00
937,387.00
938,387.00
939,387.00
940,386.00
941,387.00
942,386.00
943,387.00
944,386.00
945,387.00
946,386.00
947,387.00
948,387.00
949,386.00
950,386.00
951,387.00
952,386.00
953,386.00
954,386.00
955,386.00
956,386.00
957,387.00
958,386.00
959,386.00
960,387.00
961,387.00
962,386.00
963,387.00
964,386.00
965,386.00
966,387.00
967,386.00
968,386.00
969,386.00
970,386.00
971,387.00
972,386.00
973,386.00
974,387.00
975,387.00
976,386.00
977,386.00
978,387.00
979,387.00
980,387.00
981,387.00
982,387.00
983,387.00
984,387.00
985,387.00
986,387.00
987,387.00
988,387.00
989,387.00
990,387.00
991,387.00
992,387.00
993,387.00
994,387.00
995,387.00
996,386.00
997,387.00
998,387.00
999,387.00
1000,388.00
1001,387.00
1002,388.00
1003,388.00
1004,388.00
1005,389.00
1006,390.00
1007,390.00
1008,390.00
1009,390.00
1010,390.00
1011,390.00
1012,392.00
1013,391.00
1014,392.00
1015,392.00
1016,392.00
1017,391.00
1018,392.00
1019,392.00
1020,392.00
1021,393.00
1022,393.00
1023,394.00
1024,394.00
1025,397.00
1026,399.00
1027,400.00
1028,401.00
1029,401.00
1030,401.00
1031,404.00
1032,407.00
1033,410.00
1034,414.00
1035,417.00
1036,420.00
1037,423.00
1038,428.00
1039,435.00
1040,441.00
1041,448.00
1042,454.00
1043,460.00
1044,467.00
1045,478.00
1046,489.00
1047,499.00
1048,504.00
1049,508.00
1050,508.00
1051,508.00
1052,514.00
1053,524.00
1054,532.00
1055,537.00
1056,542.00
1057,551.00
1058,565.00
1059,577.00
1060,586.00
1061,591.00
1062,594.00
1063,596.00
1064,597.00
1065,597.00
1066,596.00
1067,596.00
1068,595.00
1069,598.00
1070,600.00
1071,600.00
1072,601.00
1073,601.00
1074,600.00
1075,599.00
1076,599.00
1077,600.00
1078,600.00
1079,601.00
1080,600.00
1081,599.00
1082,597.00
1083,594.00
1084,591.00
1085,589.00
1086,587.00
1087,586.00
1088,588.00
1089,590.00
1090,593.00
1091,595.00
1092,598.00
1093,599.00
1094,598.00
1095,595.00
1096,591.00
1097,585.00
1098,579.00
1099,573.00
1100,567.00
1101,560.00
1102,553.00
1103,546.00
1104,540.00
1105,533.00
1106,527.00
1107,518.00
1108,513.00
1109,505.00
1110,498.00
1111,491.00
1112,484.00
1113,478.00
1114,474.00
1115,469.00
1116,465.00
1117,461.00
1118,458.00
1119,455.00
1120,454.00
1121,451.00
1122,448.00
1123,446.00
1124,443.00
1125,443.00
1126,442.00
1127,440.00
1128,438.00
1129,438.00
1130,434.00
1131,436.00
1132,435.00
1133,434.00
1134,433.00
1135,431.00
1136,430.00
1137,429.00
1138,429.00
1139,428.00
1140,427.00
1141,427.00
1142,426.00
1143,426.00
1144,425.00
1145,425.00
1146,426.00
1147,425.00
1148,425.00
1149,425.00
1150,424.00
1151,424.00
1152,424.00
1153,424.00
1154,423.00
1155,423.00
1156,423.00
1157,423.00
1158,423.00
1159,422.00
1160,423.00
1161,422.00
1162,421.00
1163,421.00
1164,420.00
1165,419.00
1166,419.00
1167,420.00
1168,421.00
1169,422.00
1170,422.00
1171,422.00
1172,423.00
1173,423.00
1174,424.00
1175,425.00
1176,426.00
1177,427.00
1178,428.00
1179,429.00
1180,430.00
1181,432.00
1182,435.00
1183,440.00
1184,444.00
1185,448.00
1186,454.00
1187,460.00
1188,466.00
1189,473.00
1190,480.00
1191,483.00
1192,486.00
1193,490.00
1194,496.00
1195,503.00
1196,510.00
1197,516.00
1198,523.00
1199,531.00
1200,540.00
1201,549.00
1202,558.00
1203,566.00
1204,571.00
1205,576.00
1206,579.00
1207,581.00
1208,582.00
1209,582.00
1210,583.00
1211,582.00
1212,583.00
1213,583.00
1214,585.00
1215,586.00
1216,587.00
1217,590.00
1218,592.00
1219,595.00
1220,596.00
1221,597.00
1222,598.00
1223,599.00
1224,599.00
1225,599.00
1226,598.00
1227,598.00
1228,599.00
1229,599.00
1230,599.00
1231,599.00
1232,598.00
1233,599.00
1234,598.00
1235,599.00
1236,599.00
1237,599.00
1238,598.00
1239,599.00
1240,598.00
1241,599.00
1242,599.00
1243,599.00
1244,598.00
1245,598.00
1246,597.00
1247,597.00
1248,598.00
1249,599.00
1250,598.00
1251,599.00
1252,599.00
1253,598.00
1254,597.00
1255,595.00
1256,594.00
1257,593.00
1258,592.00
1259,591.00
1260,591.00
1261,591.00
1262,594.00
1263,596.00
1264,598.00
1265,603.00
1266,608.00
1267,614.00
1268,620.00
1269,625.00
1270,631.00
1271,634.00
1272,637.00
1273,639.00
1274,641.00
1275,642.00
1276,645.00
1277,647.00
1278,650.00
1279,650.00
1280,649.00
1281,648.00
1282,646.00
1283,644.00
1284,642.00
1285,638.00
1286,633.00
1287,626.00
1288,620.00
1289,611.00
1290,604.00
1291,595.00
1292,587.00
1293,578.00
1294,570.00
1295,561.00
1296,553.00
1297,548.00
1298,542.00
1299,537.00
1300,532.00
1301,526.00
1302,519.00
1303,514.00
1304,509.00
1305,504.00
1306,501.00
1307,498.00
1308,494.00
1309,492.00
1310,489.00
1311,486.00
1312,483.00
1313,481.00
1314,479.00
1315,475.00
1316,474.00
1317,472.00
1318,470.00
1319,468.00
1320,467.00
1321,465.00
1322,464.00
1323,462.00
1324,460.00
1325,459.00
1326,458.00
1327,456.00
1328,455.00
1329,454.00
1330,453.00
1331,453.00
1332,452.00
1333,451.00
1334,451.00
1335,450.00
1336,449.00
1337,448.00
1338,447.00
1339,447.00
1340,446.00
1341,447.00
1342,445.00
1343,445.00
1344,445.00
1345,443.00
1346,443.00
1347,443.00
1348,442.00
1349,442.00
1350,442.00
1351,441.00
1352,440.00
1353,440.00
1354,440.00
1355,439.00
1356,439.00
1357,438.00
1358,439.00
1359,438.00
1360,438.00
1361,438.00
1362,437.00
1363,437.00
1364,436.00
1365,437.00
1366,436.00
1367,436.00
1368,436.00
1369,436.00
1370,436.00
1371,436.00
1372,436.00
1373,436.00
1374,436.00
1375,438.00
1376,439.00
1377,442.00
1378,444.00
1379,446.00
1380,449.00
1381,451.00
1382,453.00
1383,455.00
1384,457.00
1385,461.00
1386,466.00
1387,470.00
1388,476.00
1389,480.00
1390,487.00
1391,494.00
1392,502.00
1393,509.00
1394,516.00
1395,524.00
1396,531.00
1397,539.00
1398,546.00
1399,553.00
1400,557.00
1401,562.00
1402,566.00
1403,571.00
1404,575.00
1405,578.00
1406,583.00
1407,586.00
1408,591.00
1409,595.00
1410,598.00
1411,600.00
1412,603.00
1413,604.00
1414,606.00
1415,606.00
1416,607.00
1417,607.00
1418,607.00
1419,608.00
1420,608.00
1421,609.00
1422,608.00
1423,607.00
1424,607.00
1425,607.00
1426,606.00
1427,606.00
1428,605.00
1429,604.00
1430,604.00
1431,603.00
1432,603.00
1433,601.00
1434,601.00
1435,600.00
1436,599.00
1437,598.00
1438,597.00
1439,596.00
1440,596.00
1441,596.00
1442,595.00
1443,594.00
1444,594.00
1445,595.00
1446,594.00
1447,593.00
1448,592.00
1449,591.00
1450,592.00
1451,591.00
1452,590.00
1453,588.00
1454,588.00
1455,587.00
1456,586.00
1457,586.00
1458,586.00
1459,588.00
1460,591.00
1461,596.00
1462,601.00
1463,608.00
1464,614.00
1465,621.00
1466,627.00
1467,633.00
1468,639.00
1469,645.00
1470,649.00
1471,648.00
1472,646.00
1473,645.00
1474,643.00
1475,640.00
1476,636.00
1477,631.00
1478,623.00
1479,614.00
1480,605.00
1481,596.00
1482,589.00
1483,582.00
1484,575.00
1485,569.00
1486,562.00
1487,555.00
1488,548.00
1489,543.00
1490,537.00
1491,531.00
1492,525.00
1493,518.00
1494,512.00
1495,505.00
1496,499.00
1497,494.00
1498,489.00
1499,485.00
1500,481.00
1501,479.00
1502,476.00
1503,473.00
1504,471.00
1505,470.00
1506,468.00
1507,466.00
1508,464.00
1509,464.00
1510,462.00
1511,461.00
1512,460.00
1513,459.00
1514,458.00
1515,456.00
1516,456.00
1517,455.00
1518,454.00
1519,454.00
1520,453.00
1521,452.00
1522,452.00
1523,451.00
1524,450.00
1525,450.00
1526,449.00
1527,449.00
1528,448.00
1529,448.00
1530,447.00
1531,447.00
1532,446.00
1533,446.00
1534,446.00
1535,445.00
1536,445.00
1537,444.00
1538,444.00
1539,444.00
1540,443.00
1541,443.00
1542,442.00
1543,442.00
1544,441.00
1545,442.00
1546,441.00
1547,441.00
1548,440.00
1549,440.00
1550,439.00
1551,439.00
1552,439.00
1553,439.00
1554,439.00
1555,438.00
1556,438.00
1557,437.00
1558,436.00
1559,437.00
1560,436.00
1561,436.00
1562,435.00
1563,436.00
1564,435.00
1565,435.00
1566,434.00
1567,434.00
1568,434.00
1569,434.00
1570,434.00
1571,434.00
1572,435.00
1573,435.00
1574,435.00
1575,436.00
1576,438.00
1577,441.00
1578,447.00
1579,450.00
1580,454.00
1581,459.00
1582,464.00
1583,470.00
1584,477.00
1585,487.00
1586,498.00
1587,509.00
1588,519.00
1589,529.00
1590,539.00
1591,549.00
1592,558.00
1593,568.00
1594,575.00
1595,581.00
1596,586.00
1597,591.00
1598,595.00
1599,599.00
1600,602.00
1601,604.00
1602,606.00
1603,606.00
1604,608.00
1605,609.00
1606,610.00
1607,610.00
1608,610.00
1609,609.00
1610,609.00
1611,608.00
1612,607.00
1613,607.00
1614,605.00
1615,604.00
1616,603.00
1617,601.00
1618,598.00
1619,597.00
1620,596.00
1621,594.00
1622,594.00
1623,593.00
1624,594.00
1625,594.00
1626,595.00
1627,595.00
1628,595.00
1629,595.00
1630,595.00
1631,595.00
1632,595.00
1633,594.00
1634,594.00
1635,594.00
1636,594.00
1637,594.00
1638,593.00
1639,593.00
1640,593.00
1641,593.00
1642,591.00
1643,591.00
1644,589.00
1645,588.00
1646,587.00
1647,588.00
1648,589.00
1649,591.00
1650,595.00
1651,600.00
1652,606.00
1653,610.00
1654,616.00
1655,620.00
1656,625.00
1657,628.00
1658,633.00
1659,637.00
1660,640.00
1661,643.00
1662,645.00
1663,646.00
1664,647.00
1665,646.00
1666,647.00
1667,644.00
1668,643.00
1669,640.00
1670,636.00
1671,631.00
1672,624.00
1673,616.00
1674,606.00
1675,596.00
1676,587.00
1677,578.00
1678,568.00
1679,559.00
1680,550.00
1681,541.00
1682,533.00
1683,525.00
1684,518.00
1685,512.00
1686,507.00
1687,503.00
1688,500.00
1689,497.00
1690,496.00
1691,494.00
1692,492.00
1693,491.00
1694,489.00
1695,487.00
1696,485.00
1697,484.00
1698,482.00
1699,480.00
1700,478.00
1701,475.00
1702,474.00
1703,472.00
1704,470.00
1705,470.00
1706,467.00
1707,466.00
1708,466.00
1709,464.00
1710,464.00
1711,463.00
1712,462.00
1713,461.00
1714,460.00
1715,459.00
1716,460.00
1717,459.00
1718,458.00
1719,457.00
1720,456.00
1721,455.00
1722,455.00
1723,454.00
1724,454.00
1725,454.00
1726,454.00
1727,453.00
1728,453.00
1729,452.00
1730,452.00
1731,452.00
1732,451.00
1733,451.00
1734,451.00
1735,450.00
1736,450.00
1737,450.00
1738,450.00
1739,451.00
1740,450.00
1741,450.00
1742,450.00
1743,449.00
1744,450.00
1745,450.00
1746,450.00
1747,450.00
1748,451.00
1749,451.00
1750,454.00
1751,455.00
1752,457.00
1753,460.00
1754,463.00
1755,467.00
1756,472.00
1757,477.00
1758,482.00
1759,488.00
1760,494.00
1761,500.00
1762,507.00
1763,514.00
1764,523.00
1765,533.00
1766,541.00
1767,550.00
1768,558.00
1769,565.00
1770,573.00
1771,580.00
1772,586.00
1773,592.00
1774,598.00
1775,601.00
1776,605.00
1777,607.00
1778,610.00
1779,611.00
1780,613.00
1781,613.00
1782,613.00
1783,612.00
1784,611.00
1785,610.00
1786,609.00
1787,607.00
1788,606.00
1789,605.00
1790,602.00
1791,602.00
1792,602.00
1793,601.00
1794,599.00
1795,598.00
1796,597.00
1797,596.00
1798,595.00
1799,594.00
1800,594.00
1801,595.00
1802,594.00
1803,594.00
1804,594.00
1805,594.00
1806,594.00
1807,595.00
1808,594.00
1809,594.00
1810,594.00
1811,592.00
1812,592.00
1813,592.00
1814,591.00
1815,591.00
1816,591.00
1817,591.00
1818,590.00
1819,590.00
1820,589.00
1821,589.00
1822,589.00
1823,589.00
1824,591.00
1825,588.00
1826,587.00
1827,586.00
1828,586.00
1829,586.00
1830,586.00
1831,587.00
1832,589.00
1833,593.00
1834,596.00
1835,601.00
1836,606.00
1837,609.00
1838,614.00
1839,619.00
1840,623.00
1841,628.00
1842,631.00
1843,636.00
1844,639.00
1845,642.00
1846,644.00
1847,646.00
1848,646.00
1849,646.00
1850,646.00
1851,645.00
1852,644.00
1853,644.00
1854,643.00
1855,640.00
1856,637.00
1857,633.00
1858,630.00
1859,627.00
1860,624.00
1861,621.00
1862,618.00
1863,613.00
1864,608.00
1865,604.00
1866,600.00
1867,597.00
1868,593.00
1869,590.00
1870,585.00
1871,581.00
1872,577.00
1873,573.00
1874,569.00
1875,565.00
1876,561.00
1877,557.00
1878,553.00
1879,549.00
1880,546.00
1881,543.00
1882,540.00
1883,536.00
1884,534.00
1885,530.00
1886,527.00
1887,525.00
1888,522.00
1889,519.00
1890,517.00
1891,515.00
1892,515.00
1893,513.00
1894,512.00
1895,511.00
1896,510.00
1897,509.00
1898,507.00
1899,506.00
1900,504.00
1901,502.00
1902,500.00
1903,498.00
1904,497.00
1905,496.00
1906,496.00
1907,495.00
1908,493.00
1909,493.00
1910,492.00
1911,491.00
1912,490.00
1913,489.00
1914,488.00
1915,487.00
1916,487.00
1917,487.00
1918,486.00
1919,485.00
1920,485.00
1921,485.00
1922,484.00
1923,484.00
1924,484.00
1925,484.00
1926,484.00
1927,484.00
1928,483.00
1929,483.00
1930,483.00
1931,483.00
1932,483.00
1933,484.00
1934,485.00
1935,487.00
1936,488.00
1937,491.00
1938,495.00
1939,498.00
1940,501.00
1941,505.00
1942,509.00
1943,515.00
1944,519.00
1945,525.00
1946,532.00
1947,535.00
1948,541.00
1949,545.00
1950,552.00
1951,559.00
1952,568.00
1953,577.00
1954,586.00
1955,592.00
1956,598.00
1957,602.00
1958,605.00
1959,608.00
1960,609.00
1961,610.00
1962,610.00
1963,611.00
1964,612.00
1965,612.00
1966,611.00
1967,611.00
1968,610.00
1969,609.00
1970,609.00
1971,608.00
1972,607.00
1973,607.00
1974,607.00
1975,606.00
1976,604.00
1977,604.00
1978,603.00
1979,602.00
1980,600.00
1981,600.00
1982,599.00
1983,597.00
1984,597.00
1985,596.00
1986,594.00
1987,594.00
1988,594.00
1989,593.00
1990,591.00
1991,592.00
1992,591.00
1993,589.00
1994,588.00
1995,587.00
1996,586.00
1997,586.00
1998,586.00
1999,589.00
2000,593.00
2001,600.00
2002,608.00
2003,618.00
2004,628.00
2005,636.00
2006,641.00
2007,644.00
2008,647.00
2009,648.00
2010,647.00
2011,644.00
2012,640.00
2013,636.00
2014,632.00
2015,627.00
2016,623.00
2017,617.00
2018,612.00
2019,606.00
2020,602.00
2021,598.00
2022,594.00
2023,591.00
2024,586.00
2025,583.00
2026,578.00
2027,574.00
2028,569.00
2029,564.00
2030,559.00
2031,554.00
2032,551.00
2033,548.00
2034,545.00
2035,542.00
2036,540.00
2037,537.00
2038,535.00
2039,532.00
2040,529.00
2041,526.00
2042,524.00
2043,522.00
2044,521.00
2045,522.00
2046,526.00
2047,533.00
2048,543.00
2049,555.00
2050,568.00
2051,581.00
2052,592.00
2053,602.00
2054,611.00
2055,618.00
2056,622.00
2057,624.00
2058,624.00
2059,624.00
2060,621.00
2061,619.00
2062,617.00
2063,613.00
2064,612.00
2065,612.00
2066,615.00
2067,618.00
2068,621.00
2069,624.00
2070,625.00
2071,626.00
2072,627.00
2073,628.00
2074,628.00
2075,628.00
2076,629.00
2077,629.00
2078,629.00
2079,627.00
2080,626.00
2081,625.00
2082,626.00
2083,630.00
2084,639.00
2085,649.00
2086,659.00
2087,668.00
2088,675.00
2089,681.00
2090,686.00
2091,690.00
2092,693.00
2093,697.00
2094,699.00
2095,700.00
2096,702.00
2097,702.00
2098,700.00
2099,698.00
2100,695.00
2101,692.00
2102,687.00
2103,683.00
2104,679.00
2105,675.00
2106,672.00
2107,669.00
2108,666.00
2109,662.00
2110,659.00
2111,655.00
2112,651.00
2113,646.00
2114,641.00
2115,638.00
2116,632.00
2117,628.00
2118,623.00
2119,618.00
2120,615.00
2121,612.00
2122,608.00
2123,604.00
2124,601.00
2125,596.00
2126,589.00
2127,584.00
2128,576.00
2129,569.00
2130,562.00
2131,556.00
2132,550.00
2133,545.00
2134,542.00
2135,538.00
2136,535.00
2137,533.00
2138,532.00
2139,531.00
2140,529.00
2141,529.00
2142,527.00
2143,526.00
2144,524.00
2145,523.00
2146,521.00
2147,518.00
2148,514.00
2149,512.00
2150,507.00
2151,503.00
2152,499.00
2153,496.00
2154,492.00
2155,489.00
2156,487.00
2157,485.00
2158,484.00
2159,482.00
2160,481.00
2161,479.00
2162,479.00
2163,477.00
2164,476.00
2165,474.00
2166,473.00
2167,472.00
2168,472.00
2169,470.00
2170,470.00
2171,468.00
2172,467.00
2173,467.00
2174,466.00
2175,467.00
2176,465.00
2177,465.00
2178,467.00
2179,472.00
2180,481.00
2181,494.00
2182,509.00
2183,522.00
2184,539.00
2185,553.00
2186,566.00
2187,578.00
2188,589.00
2189,599.00
2190,608.00
2191,617.00
2192,624.00
2193,632.00
2194,636.00
2195,638.00
2196,639.00
2197,639.00
2198,639.00
2199,638.00
2200,635.00
2201,634.00
2202,632.00
2203,632.00
2204,630.00
2205,629.00
2206,627.00
2207,627.00
2208,625.00
2209,624.00
2210,623.00
2211,621.00
2212,620.00
2213,619.00
2214,617.00
2215,616.00
2216,615.00
2217,616.00
2218,617.00
2219,623.00
2220,628.00
2221,632.00
2222,637.00
2223,639.00
2224,643.00
2225,645.00
2226,647.00
2227,650.00
2228,652.00
2229,654.00
2230,655.00
2231,656.00
2232,658.00
2233,657.00
2234,656.00
2235,655.00
2236,654.00
2237,651.00
2238,650.00
2239,647.00
2240,643.00
2241,640.00
2242,634.00
2243,629.00
2244,624.00
2245,619.00
2246,616.00
2247,613.00
2248,610.00
2249,608.00
2250,604.00
2251,600.00
2252,596.00
2253,592.00
2254,587.00
2255,583.00
2256,579.00
2257,574.00
2258,568.00
2259,563.00
2260,558.00
2261,552.00
2262,547.00
2263,543.00
2264,538.00
2265,533.00
2266,528.00
2267,524.00
2268,519.00
2269,513.00
2270,509.00
2271,505.00
2272,501.00
2273,499.00
2274,496.00
2275,494.00
2276,492.00
2277,490.00
2278,489.00
2279,488.00
2280,486.00
2281,486.00
2282,485.00
2283,484.00
2284,483.00
2285,481.00
2286,480.00
2287,479.00
2288,479.00
2289,477.00
2290,476.00
2291,475.00
2292,473.00
2293,472.00
2294,470.00
2295,469.00
2296,468.00
2297,466.00
2298,466.00
2299,465.00
2300,464.00
2301,463.00
2302,463.00
2303,463.00
2304,462.00
2305,462.00
2306,461.00
2307,461.00
2308,460.00
2309,460.00
2310,459.00
2311,459.00
2312,459.00
2313,458.00
2314,457.00
2315,457.00
2316,456.00
2317,456.00
2318,456.00
2319,455.00
2320,455.00
2321,456.00
2322,458.00
2323,459.00
2324,462.00
2325,464.00
2326,465.00
2327,467.00
2328,470.00
2329,475.00
2330,481.00
2331,491.00
2332,504.00
2333,518.00
2334,533.00
2335,550.00
2336,563.00
2337,577.00
2338,590.00
2339,600.00
2340,609.00
2341,617.00
2342,623.00
2343,626.00
2344,629.00
2345,629.00
2346,629.00
2347,629.00
2348,627.00
2349,625.00
2350,626.00
2351,624.00
2352,623.00
2353,621.00
2354,620.00
2355,619.00
2356,618.00
2357,616.00
2358,614.00
2359,614.00
2360,611.00
2361,610.00
2362,608.00
2363,605.00
2364,606.00
2365,606.00
2366,606.00
2367,608.00
2368,611.00
2369,615.00
2370,619.00
2371,623.00
2372,629.00
2373,634.00
2374,639.00
2375,642.00
2376,645.00
2377,646.00
2378,649.00
2379,650.00
2380,649.00
2381,647.00
2382,646.00
2383,643.00
2384,641.00
2385,638.00
2386,634.00
2387,630.00
2388,624.00
2389,618.00
2390,611.00
2391,606.00
2392,602.00
2393,595.00
2394,590.00
2395,583.00
2396,576.00
2397,569.00
2398,563.00
2399,558.00
2400,553.00
2401,549.00
2402,544.00
2403,538.00
2404,533.00
2405,528.00
2406,523.00
2407,517.00
2408,512.00
2409,509.00
2410,504.00
2411,500.00
2412,497.00
2413,494.00
2414,491.00
2415,488.00
2416,486.00
2417,483.00
2418,480.00
2419,478.00
2420,476.00
2421,474.00
2422,472.00
2423,470.00
2424,469.00
2425,468.00
2426,467.00
2427,465.00
2428,464.00
2429,463.00
2430,463.00
2431,461.00
2432,460.00
2433,459.00
2434,458.00
2435,458.00
2436,457.00
2437,456.00
2438,456.00
2439,456.00
2440,455.00
2441,454.00
2442,453.00
2443,453.00
2444,452.00
2445,452.00
2446,451.00
2447,451.00
2448,450.00
2449,450.00
2450,450.00
2451,449.00
2452,449.00
2453,448.00
2454,447.00
2455,447.00
2456,447.00
2457,444.00
2458,446.00
2459,446.00
2460,445.00
2461,444.00
2462,444.00
2463,445.00
2464,444.00
2465,443.00
2466,443.00
2467,442.00
2468,443.00
2469,442.00
2470,442.00
2471,442.00
2472,442.00
2473,440.00
2474,442.00
2475,441.00
2476,441.00
2477,441.00
2478,441.00
2479,443.00
2480,444.00
2481,448.00
2482,452.00
2483,455.00
2484,458.00
2485,462.00
2486,464.00
2487,468.00
2488,473.00
2489,480.00
2490,491.00
2491,505.00
2492,520.00
2493,533.00
2494,548.00
2495,564.00
2496,579.00
2497,592.00
2498,604.00
2499,612.00
2500,618.00
2501,621.00
2502,624.00
2503,625.00
2504,625.00
2505,624.00
2506,623.00
2507,622.00
2508,620.00
2509,618.00
2510,617.00
2511,617.00
2512,617.00
2513,618.00
2514,618.00
2515,617.00
2516,617.00
2517,615.00
2518,614.00
2519,612.00
2520,610.00
2521,609.00
2522,608.00
2523,608.00
2524,609.00
2525,613.00
2526,619.00
2527,627.00
2528,638.00
2529,649.00
2530,656.00
2531,663.00
2532,667.00
2533,669.00
2534,671.00
2535,669.00
2536,666.00
2537,659.00
2538,651.00
2539,642.00
2540,634.00
2541,625.00
2542,615.00
2543,605.00
2544,596.00
2545,586.00
2546,578.00
2547,570.00
2548,561.00
2549,554.00
2550,547.00
2551,540.00
2552,534.00
2553,529.00
2554,525.00
2555,520.00
2556,517.00
2557,514.00
2558,512.00
2559,508.00
2560,504.00
2561,501.00
2562,497.00
2563,493.00
2564,489.00
2565,486.00
2566,483.00
2567,480.00
2568,478.00
2569,476.00
2570,474.00
2571,472.00
2572,471.00
2573,470.00
2574,468.00
2575,468.00
2576,466.00
2577,465.00
2578,464.00
2579,463.00
2580,462.00
2581,461.00
2582,460.00
2583,459.00
2584,458.00
2585,456.00
2586,456.00
2587,455.00
2588,454.00
2589,453.00
2590,452.00
2591,452.00
2592,450.00
2593,450.00
2594,451.00
2595,449.00
2596,449.00
2597,448.00
2598,447.00
2599,447.00
2600,446.00
2601,446.00
2602,446.00
2603,445.00
2604,444.00
2605,444.00
2606,443.00
2607,443.00
2608,443.00
2609,442.00
2610,442.00
2611,441.00
2612,441.00
2613,441.00
2614,441.00
2615,441.00
2616,440.00
2617,440.00
2618,439.00
2619,439.00
2620,441.00
2621,439.00
2622,439.00
2623,439.00
2624,439.00
2625,439.00
2626,439.00
2627,440.00
2628,439.00
2629,442.00
2630,446.00
2631,458.00
2632,477.00
2633,493.00
2634,504.00
2635,511.00
2636,518.00
2637,528.00
2638,540.00
2639,553.00
2640,567.00
2641,580.00
2642,593.00
2643,605.00
2644,615.00
2645,621.00
2646,625.00
2647,627.00
2648,627.00
2649,626.00
2650,625.00
2651,624.00
2652,623.00
2653,621.00
2654,620.00
2655,620.00
2656,620.00
2657,621.00
2658,620.00
2659,620.00
2660,620.00
2661,619.00
2662,617.00
2663,615.00
2664,613.00
2665,612.00
2666,612.00
2667,614.00
2668,617.00
2669,623.00
2670,630.00
2671,637.00
2672,643.00
2673,650.00
2674,657.00
2675,664.00
2676,667.00
2677,671.00
2678,671.00
2679,673.00
2680,672.00
2681,670.00
2682,666.00
2683,662.00
2684,656.00
2685,650.00
2686,642.00
2687,636.00
2688,630.00
2689,623.00
2690,616.00
2691,607.00
2692,598.00
2693,589.00
2694,579.00
2695,570.00
2696,562.00
2697,555.00
2698,548.00
2699,541.00
2700,535.00
2701,530.00
2702,525.00
2703,519.00
2704,515.00
2705,510.00
2706,507.00
2707,502.00
2708,498.00
2709,495.00
2710,491.00
2711,487.00
2712,485.00
2713,483.00
2714,481.00
2715,478.00
2716,477.00
2717,476.00
2718,474.00
2719,473.00
2720,472.00
2721,470.00
2722,469.00
2723,467.00
2724,466.00
2725,465.00
2726,464.00
2727,462.00
2728,461.00
2729,460.00
2730,460.00
2731,459.00
2732,458.00
2733,457.00
2734,456.00
2735,456.00
2736,455.00
2737,454.00
2738,454.00
2739,452.00
2740,452.00
2741,452.00
2742,450.00
2743,450.00
2744,450.00
2745,450.00
2746,449.00
2747,449.00
2748,448.00
2749,448.00
2750,448.00
2751,447.00
2752,447.00
2753,447.00
2754,446.00
2755,446.00
2756,445.00
2757,445.00
2758,444.00
2759,444.00
2760,443.00
2761,443.00
2762,443.00
2763,443.00
2764,443.00
2765,442.00
2766,442.00
2767,442.00
2768,441.00
2769,440.00
2770,441.00
2771,441.00
2772,442.00
2773,441.00
2774,442.00
2775,443.00
2776,443.00
2777,444.00
2778,446.00
2779,449.00
2780,453.00
2781,461.00
2782,470.00
2783,480.00
2784,493.00
2785,507.00
2786,521.00
2787,538.00
2788,556.00
2789,573.00
2790,588.00
2791,600.00
2792,609.00
2793,614.00
2794,620.00
2795,623.00
2796,625.00
2797,626.00
2798,626.00
2799,626.00
2800,624.00
2801,622.00
2802,620.00
2803,619.00
2804,617.00
2805,616.00
2806,616.00
2807,614.00
2808,613.00
2809,612.00
2810,611.00
2811,610.00
2812,608.00
2813,606.00
2814,605.00
2815,604.00
2816,603.00
2817,604.00
2818,607.00
2819,611.00
2820,618.00
2821,624.00
2822,631.00
2823,637.00
2824,643.00
2825,647.00
2826,651.00
2827,654.00
2828,656.00
2829,658.00
2830,657.00
2831,656.00
2832,653.00
2833,649.00
2834,642.00
2835,634.00
2836,623.00
2837,614.00
2838,605.00
2839,596.00
2840,586.00
2841,575.00
2842,564.00
2843,554.00
2844,546.00
2845,537.00
2846,529.00
2847,522.00
2848,515.00
2849,509.00
2850,504.00
2851,501.00
2852,497.00
2853,494.00
2854,491.00
2855,489.00
2856,487.00
2857,484.00
2858,482.00
2859,480.00
2860,478.00
2861,475.00
2862,474.00
2863,472.00
2864,470.00
2865,469.00
2866,467.00
2867,466.00
2868,465.00
2869,464.00
2870,464.00
2871,462.00
2872,462.00
2873,461.00
2874,460.00
2875,458.00
2876,458.00
2877,459.00
2878,457.00
2879,456.00
2880,456.00
2881,455.00
2882,455.00
2883,454.00
2884,453.00
2885,453.00
2886,453.00
2887,452.00
2888,453.00
2889,452.00
2890,451.00
2891,451.00
2892,451.00
2893,450.00
2894,449.00
2895,450.00
2896,449.00
2897,449.00
2898,449.00
2899,449.00
2900,448.00
2901,449.00
2902,449.00
2903,449.00
2904,449.00
2905,449.00
2906,451.00
2907,452.00
2908,454.00
2909,455.00
2910,458.00
2911,462.00
2912,468.00
2913,476.00
2914,484.00
2915,493.00
2916,503.00
2917,511.00
2918,520.00
2919,530.00
2920,538.00
2921,548.00
2922,558.00
2923,569.00
2924,579.00
2925,592.00
2926,602.00
2927,611.00
2928,617.00
2929,621.00
2930,623.00
2931,623.00
2932,623.00
2933,621.00
2934,620.00
2935,618.00
2936,617.00
2937,616.00
2938,615.00
2939,616.00
2940,616.00
2941,615.00
2942,616.00
2943,615.00
2944,615.00
2945,614.00
2946,614.00
2947,612.00
2948,610.00
2949,609.00
2950,608.00
2951,608.00
2952,608.00
2953,612.00
2954,616.00
2955,621.00
2956,627.00
2957,634.00
2958,641.00
2959,649.00
2960,656.00
2961,661.00
2962,665.00
2963,667.00
2964,670.00
2965,671.00
2966,672.00
2967,670.00
2968,666.00
2969,661.00
2970,655.00
2971,648.00
2972,640.00
2973,631.00
2974,621.00
2975,609.00
2976,595.00
2977,582.00
2978,568.00
2979,554.00
2980,544.00
2981,534.00
2982,525.00
2983,518.00
2984,512.00
2985,506.00
2986,503.00
2987,500.00
2988,497.00
2989,495.00
2990,492.00
2991,491.00
2992,488.00
2993,486.00
2994,483.00
2995,481.00
2996,479.00
2997,477.00
2998,476.00
2999,473.00
3000,472.00
