ms,resistance
1,522.00
2,516.00
3,516.00
4,516.00
5,516.00
6,516.00
7,516.00
8,516.00
9,516.00
10,516.00
11,516.00
12,515.00
13,517.00
14,515.00
15,517.00
16,515.00
17,516.00
18,518.00
19,519.00
20,515.00
21,517.00
22,518.00
23,515.00
24,517.00
25,519.00
26,519.00
27,515.00
28,517.00
29,516.00
30,519.00
31,516.00
32,516.00
33,519.00
34,516.00
35,518.00
36,516.00
37,517.00
38,515.00
39,515.00
40,516.00
41,516.00
42,516.00
43,516.00
44,519.00
45,518.00
46,519.00
47,516.00
48,518.00
49,517.00
50,516.00
51,519.00
52,520.00
53,519.00
54,514.00
55,518.00
56,516.00
57,515.00
58,517.00
59,517.00
60,519.00
61,516.00
62,516.00
63,516.00
64,516.00
65,516.00
66,516.00
67,516.00
68,517.00
69,516.00
70,516.00
71,519.00
72,519.00
73,518.00
74,517.00
75,519.00
76,516.00
77,515.00
78,517.00
79,517.00
80,514.00
81,517.00
82,517.00
83,517.00
84,517.00
85,517.00
86,517.00
87,517.00
88,516.00
89,517.00
90,517.00
91,517.00
92,517.00
93,516.00
94,516.00
95,517.00
96,517.00
97,517.00
98,517.00
99,517.00
100,517.00
101,517.00
102,516.00
103,515.00
104,516.00
105,516.00
106,515.00
107,516.00
108,516.00
109,516.00
110,516.00
111,516.00
112,516.00
113,516.00
114,516.00
115,516.00
116,516.00
117,516.00
118,516.00
119,516.00
120,516.00
121,516.00
122,516.00
123,516.00
124,516.00
125,516.00
126,516.00
127,516.00
128,516.00
129,516.00
130,516.00
131,516.00
132,516.00
133,516.00
134,516.00
135,516.00
136,516.00
137,516.00
138,516.00
139,516.00
140,514.00
141,516.00
142,516.00
143,516.00
144,516.00
145,516.00
146,516.00
147,516.00
148,516.00
149,516.00
150,516.00
151,516.00
152,516.00
153,516.00
154,516.00
155,516.00
156,516.00
157,516.00
158,516.00
159,516.00
160,516.00
161,516.00
162,516.00
163,516.00
164,516.00
165,516.00
166,516.00
167,516.00
168,516.00
169,516.00
170,516.00
171,516.00
172,516.00
173,516.00
174,516.00
175,516.00
176,516.00
177,516.00
178,516.00
179,516.00
180,516.00
181,516.00
182,516.00
183,516.00
184,516.00
185,516.00
186,516.00
187,516.00
188,516.00
189,516.00
190,516.00
191,516.00
192,516.00
193,516.00
194,516.00
195,516.00
196,516.00
197,516.00
198,515.00
199,512.00
200,516.00
201,516.00
202,516.00
203,516.00
204,516.00
205,516.00
206,516.00
207,516.00
208,516.00
209,516.00
210,516.00
211,516.00
212,516.00
213,516.00
214,516.00
215,516.00
216,516.00
217,516.00
218,516.00
219,516.00
220,516.00
221,516.00
222,516.00
223,516.00
224,516.00
225,516.00
226,516.00
227,516.00
228,516.00
229,516.00
230,516.00
231,516.00
232,515.00
233,516.00
234,515.00
235,516.00
236,516.00
237,516.00
238,516.00
239,517.00
240,516.00
241,516.00
242,516.00
243,516.00
244,516.00
245,516.00
246,516.00
247,516.00
248,516.00
249,516.00
250,516.00
251,516.00
252,516.00
253,516.00
254,516.00
255,516.00
256,516.00
257,516.00
258,515.00
259,516.00
260,516.00
261,516.00
262,516.00
263,516.00
264,516.00
265,516.00
266,516.00
267,516.00
268,516.00
269,515.00
270,516.00
271,516.00
272,516.00
273,516.00
274,516.00
275,516.00
276,516.00
277,516.00
278,516.00
279,516.00
280,515.00
281,516.00
282,516.00
283,516.00
284,516.00
285,516.00
286,516.00
287,516.00
288,516.00
289,516.00
290,515.00
291,516.00
292,513.00
293,516.00
294,516.00
295,516.00
296,516.00
297,516.00
298,516.00
299,516.00
300,515.00
301,516.00
302,515.00
303,515.00
304,516.00
305,516.00
306,516.00
307,516.00
308,516.00
309,515.00
310,516.00
311,515.00
312,516.00
313,516.00
314,516.00
315,516.00
316,516.00
317,516.00
318,516.00
319,514.00
320,516.00
321,516.00
322,516.00
323,516.00
324,516.00
325,516.00
326,515.00
327,516.00
328,516.00
329,516.00
330,515.00
331,516.00
332,516.00
333,516.00
334,516.00
335,516.00
336,516.00
337,516.00
338,516.00
339,516.00
340,516.00
341,516.00
342,516.00
343,516.00
344,516.00
345,516.00
346,516.00
347,516.00
348,516.00
349,516.00
350,516.00
351,516.00
352,516.00
353,516.00
354,515.00
355,516.00
356,516.00
357,516.00
358,516.00
359,515.00
360,516.00
361,516.00
362,516.00
363,516.00
364,516.00
365,516.00
366,516.00
367,516.00
368,516.00
369,515.00
370,516.00
371,516.00
372,516.00
373,516.00
374,516.00
375,516.00
376,516.00
377,515.00
378,516.00
379,515.00
380,516.00
381,516.00
382,515.00
383,516.00
384,516.00
385,516.00
386,516.00
387,515.00
388,516.00
389,516.00
390,515.00
391,516.00
392,516.00
393,516.00
394,516.00
395,515.00
396,516.00
397,516.00
398,516.00
399,516.00
400,516.00
401,515.00
402,515.00
403,516.00
404,516.00
405,516.00
406,515.00
407,515.00
408,516.00
409,516.00
410,515.00
411,515.00
412,516.00
413,516.00
414,515.00
415,515.00
416,516.00
417,516.00
418,515.00
419,515.00
420,516.00
421,516.00
422,516.00
423,515.00
424,516.00
425,515.00
426,515.00
427,515.00
428,516.00
429,516.00
430,516.00
431,516.00
432,515.00
433,515.00
434,515.00
435,515.00
436,516.00
437,516.00
438,515.00
439,516.00
440,515.00
441,516.00
442,515.00
443,515.00
444,515.00
445,515.00
446,515.00
447,516.00
448,516.00
449,516.00
450,515.00
451,516.00
452,516.00
453,514.00
454,515.00
455,515.00
456,515.00
457,516.00
458,515.00
459,515.00
460,516.00
461,515.00
462,516.00
463,516.00
464,516.00
465,516.00
466,515.00
467,516.00
468,516.00
469,516.00
470,515.00
471,516.00
472,516.00
473,516.00
474,515.00
475,515.00
476,516.00
477,516.00
478,516.00
479,516.00
480,516.00
481,516.00
482,515.00
483,515.00
484,516.00
485,516.00
486,516.00
487,515.00
488,515.00
489,516.00
490,515.00
491,515.00
492,516.00
493,516.00
494,516.00
495,515.00
496,516.00
497,515.00
498,514.00
499,516.00
500,516.00
501,515.00
502,515.00
503,514.00
504,516.00
505,516.00
506,515.00
507,515.00
508,516.00
509,515.00
510,515.00
511,515.00
512,516.00
513,516.00
514,515.00
515,516.00
516,516.00
517,515.00
518,516.00
519,515.00
520,515.00
521,516.00
522,516.00
523,516.00
524,515.00
525,516.00
526,515.00
527,516.00
528,516.00
529,515.00
530,515.00
531,516.00
532,516.00
533,515.00
534,515.00
535,515.00
536,516.00
537,515.00
538,515.00
539,515.00
540,515.00
541,515.00
542,515.00
543,516.00
544,515.00
545,516.00
546,515.00
547,515.00
548,516.00
549,515.00
550,515.00
551,515.00
552,516.00
553,515.00
554,515.00
555,516.00
556,515.00
557,515.00
558,515.00
559,516.00
560,516.00
561,515.00
562,515.00
563,516.00
564,515.00
565,515.00
566,515.00
567,516.00
568,515.00
569,515.00
570,515.00
571,515.00
572,515.00
573,515.00
574,515.00
575,516.00
576,516.00
577,515.00
578,516.00
579,515.00
580,515.00
581,515.00
582,515.00
583,516.00
584,515.00
585,515.00
586,515.00
587,516.00
588,515.00
589,515.00
590,515.00
591,516.00
592,515.00
593,516.00
594,516.00
595,516.00
596,512.00
597,515.00
598,515.00
599,516.00
600,516.00
601,516.00
602,515.00
603,515.00
604,515.00
605,515.00
606,515.00
607,516.00
608,515.00
609,515.00
610,515.00
611,516.00
612,516.00
613,516.00
614,515.00
615,515.00
616,516.00
617,516.00
618,515.00
619,515.00
620,515.00
621,515.00
622,515.00
623,516.00
624,515.00
625,515.00
626,515.00
627,516.00
628,515.00
629,515.00
630,516.00
631,515.00
632,515.00
633,515.00
634,515.00
635,515.00
636,515.00
637,516.00
638,515.00
639,515.00
640,515.00
641,515.00
642,515.00
643,515.00
644,515.00
645,515.00
646,515.00
647,515.00
648,514.00
649,515.00
650,515.00
651,515.00
652,515.00
653,516.00
654,515.00
655,516.00
656,515.00
657,515.00
658,516.00
659,515.00
660,515.00
661,515.00
662,515.00
663,515.00
664,515.00
665,515.00
666,515.00
667,515.00
668,515.00
669,515.00
670,515.00
671,516.00
672,515.00
673,515.00
674,515.00
675,514.00
676,515.00
677,515.00
678,515.00
679,515.00
680,515.00
681,515.00
682,515.00
683,515.00
684,515.00
685,515.00
686,515.00
687,515.00
688,515.00
689,515.00
690,515.00
691,515.00
692,515.00
693,515.00
694,515.00
695,516.00
696,515.00
697,515.00
698,515.00
699,515.00
700,515.00
701,515.00
702,515.00
703,515.00
704,515.00
705,515.00
706,515.00
707,515.00
708,515.00
709,515.00
710,515.00
711,515.00
712,515.00
713,515.00
714,515.00
715,515.00
716,515.00
717,515.00
718,515.00
719,515.00
720,515.00
721,515.00
722,515.00
723,516.00
724,515.00
725,515.00
726,515.00
727,515.00
728,515.00
729,514.00
730,515.00
731,515.00
732,515.00
733,515.00
734,515.00
735,515.00
736,516.00
737,515.00
738,515.00
739,516.00
740,515.00
741,515.00
742,515.00
743,515.00
744,515.00
745,515.00
746,515.00
747,515.00
748,515.00
749,515.00
750,515.00
751,515.00
752,515.00
753,515.00
754,515.00
755,515.00
756,515.00
757,516.00
758,515.00
759,515.00
760,515.00
761,515.00
762,516.00
763,515.00
764,515.00
765,515.00
766,515.00
767,515.00
768,515.00
769,515.00
770,515.00
771,515.00
772,515.00
773,515.00
774,516.00
775,515.00
776,515.00
777,514.00
778,515.00
779,515.00
780,515.00
781,515.00
782,515.00
783,515.00
784,515.00
785,515.00
786,515.00
787,516.00
788,515.00
789,515.00
790,515.00
791,515.00
792,515.00
793,515.00
794,515.00
795,515.00
796,515.00
797,515.00
798,514.00
799,515.00
800,515.00
801,515.00
802,515.00
803,516.00
804,515.00
805,515.00
806,515.00
807,515.00
808,515.00
809,515.00
810,515.00
811,515.00
812,515.00
813,515.00
814,515.00
815,515.00
816,514.00
817,515.00
818,515.00
819,515.00
820,515.00
821,515.00
822,515.00
823,515.00
824,515.00
825,515.00
826,515.00
827,514.00
828,515.00
829,515.00
830,515.00
831,515.00
832,515.00
833,515.00
834,515.00
835,515.00
836,515.00
837,515.00
838,515.00
839,515.00
840,515.00
841,515.00
842,515.00
843,515.00
844,514.00
845,515.00
846,515.00
847,515.00
848,514.00
849,515.00
850,515.00
851,515.00
852,515.00
853,515.00
854,515.00
855,515.00
856,515.00
857,515.00
858,515.00
859,515.00
860,515.00
861,515.00
862,515.00
863,515.00
864,515.00
865,515.00
866,515.00
867,515.00
868,515.00
869,515.00
870,515.00
871,514.00
872,515.00
873,515.00
874,515.00
875,515.00
876,515.00
877,514.00
878,515.00
879,515.00
880,515.00
881,515.00
882,515.00
883,515.00
884,515.00
885,515.00
886,515.00
887,515.00
888,515.00
889,516.00
890,515.00
891,515.00
892,515.00
893,515.00
894,515.00
895,515.00
896,515.00
897,515.00
898,515.00
899,515.00
900,515.00
901,515.00
902,515.00
903,515.00
904,515.00
905,514.00
906,515.00
907,515.00
908,515.00
909,515.00
910,515.00
911,515.00
912,515.00
913,515.00
914,515.00
915,515.00
916,515.00
917,515.00
918,516.00
919,515.00
920,515.00
921,515.00
922,516.00
923,515.00
924,515.00
925,515.00
926,515.00
927,514.00
928,515.00
929,515.00
930,512.00
931,515.00
932,515.00
933,515.00
934,515.00
935,515.00
936,515.00
937,515.00
938,516.00
939,515.00
940,515.00
941,515.00
942,515.00
943,515.00
944,514.00
945,515.00
946,515.00
947,514.00
948,515.00
949,515.00
950,515.00
951,515.00
952,515.00
953,515.00
954,516.00
955,514.00
956,515.00
957,515.00
958,514.00
959,515.00
960,515.00
961,515.00
962,515.00
963,515.00
964,515.00
965,516.00
966,516.00
967,515.00
968,516.00
969,516.00
970,516.00
971,516.00
972,513.00
973,516.00
974,516.00
975,516.00
976,515.00
977,515.00
978,516.00
979,516.00
980,515.00
981,516.00
982,515.00
983,516.00
984,517.00
985,517.00
986,513.00
987,519.00
988,521.00
989,521.00
990,521.00
991,523.00
992,520.00
993,525.00
994,526.00
995,527.00
996,526.00
997,528.00
998,526.00
999,528.00
1000,528.00
1001,528.00
1002,529.00
1003,531.00
1004,531.00
1005,529.00
1006,533.00
1007,534.00
1008,532.00
1009,536.00
1010,539.00
1011,539.00
1012,539.00
1013,537.00
1014,541.00
1015,543.00
1016,548.00
1017,553.00
1018,554.00
1019,555.00
1020,562.00
1021,570.00
1022,575.00
1023,588.00
1024,597.00
1025,609.00
1026,625.00
1027,636.00
1028,641.00
1029,639.00
1030,655.00
1031,653.00
1032,662.00
1033,673.00
1034,682.00
1035,689.00
1036,697.00
1037,707.00
1038,712.00
1039,712.00
1040,726.00
1041,725.00
1042,733.00
1043,727.00
1044,723.00
1045,736.00
1046,727.00
1047,725.00
1048,729.00
1049,736.00
1050,733.00
1051,733.00
1052,742.00
1053,740.00
1054,751.00
1055,751.00
1056,756.00
1057,752.00
1058,759.00
1059,760.00
1060,755.00
1061,758.00
1062,760.00
1063,757.00
1064,766.00
1065,765.00
1066,767.00
1067,762.00
1068,759.00
1069,764.00
1070,763.00
1071,753.00
1072,754.00
1073,754.00
1074,759.00
1075,753.00
1076,753.00
1077,752.00
1078,752.00
1079,752.00
1080,754.00
1081,746.00
1082,743.00
1083,750.00
1084,746.00
1085,751.00
1086,751.00
1087,754.00
1088,747.00
1089,748.00
1090,759.00
1091,747.00
1092,749.00
1093,749.00
1094,746.00
1095,750.00
1096,757.00
1097,750.00
1098,746.00
1099,748.00
1100,750.00
1101,747.00
1102,747.00
1103,739.00
1104,745.00
1105,746.00
1106,745.00
1107,753.00
1108,747.00
1109,747.00
1110,748.00
1111,748.00
1112,746.00
1113,744.00
1114,747.00
1115,746.00
1116,749.00
1117,756.00
1118,745.00
1119,736.00
1120,748.00
1121,746.00
1122,745.00
1123,748.00
1124,743.00
1125,744.00
1126,749.00
1127,740.00
1128,744.00
1129,749.00
1130,744.00
1131,744.00
1132,746.00
1133,751.00
1134,748.00
1135,745.00
1136,745.00
1137,751.00
1138,749.00
1139,749.00
1140,748.00
1141,748.00
1142,748.00
1143,750.00
1144,751.00
1145,747.00
1146,747.00
1147,744.00
1148,747.00
1149,745.00
1150,747.00
1151,741.00
1152,746.00
1153,754.00
1154,746.00
1155,747.00
1156,745.00
1157,741.00
1158,743.00
1159,753.00
1160,739.00
1161,731.00
1162,730.00
1163,728.00
1164,728.00
1165,729.00
1166,727.00
1167,719.00
1168,715.00
1169,717.00
1170,716.00
1171,714.00
1172,714.00
1173,709.00
1174,702.00
1175,696.00
1176,702.00
1177,694.00
1178,688.00
1179,691.00
1180,682.00
1181,678.00
1182,678.00
1183,673.00
1184,668.00
1185,665.00
1186,668.00
1187,666.00
1188,659.00
1189,662.00
1190,659.00
1191,658.00
1192,659.00
1193,658.00
1194,653.00
1195,658.00
1196,650.00
1197,640.00
1198,638.00
1199,638.00
1200,626.00
1201,633.00
1202,632.00
1203,644.00
1204,637.00
1205,629.00
1206,624.00
1207,628.00
1208,628.00
1209,625.00
1210,618.00
1211,621.00
1212,620.00
1213,616.00
1214,613.00
1215,622.00
1216,625.00
1217,614.00
1218,613.00
1219,612.00
1220,615.00
1221,609.00
1222,609.00
1223,616.00
1224,617.00
1225,605.00
1226,615.00
1227,605.00
1228,614.00
1229,611.00
1230,609.00
1231,609.00
1232,607.00
1233,602.00
1234,612.00
1235,615.00
1236,608.00
1237,606.00
1238,620.00
1239,622.00
1240,634.00
1241,643.00
1242,650.00
1243,653.00
1244,659.00
1245,668.00
1246,674.00
1247,678.00
1248,687.00
1249,690.00
1250,691.00
1251,691.00
1252,703.00
1253,708.00
1254,712.00
1255,715.00
1256,710.00
1257,718.00
1258,717.00
1259,717.00
1260,711.00
1261,726.00
1262,722.00
1263,725.00
1264,725.00
1265,742.00
1266,734.00
1267,729.00
1268,727.00
1269,721.00
1270,729.00
1271,740.00
1272,746.00
1273,745.00
1274,746.00
1275,749.00
1276,745.00
1277,744.00
1278,756.00
1279,738.00
1280,739.00
1281,740.00
1282,745.00
1283,748.00
1284,749.00
1285,751.00
1286,744.00
1287,743.00
1288,747.00
1289,746.00
1290,737.00
1291,751.00
1292,743.00
1293,744.00
1294,748.00
1295,742.00
1296,748.00
1297,746.00
1298,746.00
1299,746.00
1300,746.00
1301,738.00
1302,745.00
1303,732.00
1304,746.00
1305,745.00
1306,735.00
1307,738.00
1308,737.00
1309,734.00
1310,736.00
1311,738.00
1312,731.00
1313,740.00
1314,736.00
1315,738.00
1316,737.00
1317,737.00
1318,737.00
1319,738.00
1320,735.00
1321,732.00
1322,727.00
1323,740.00
1324,736.00
1325,734.00
1326,736.00
1327,730.00
1328,737.00
1329,736.00
1330,732.00
1331,735.00
1332,725.00
1333,730.00
1334,736.00
1335,738.00
1336,733.00
1337,732.00
1338,735.00
1339,732.00
1340,732.00
1341,729.00
1342,734.00
1343,732.00
1344,735.00
1345,736.00
1346,723.00
1347,730.00
1348,735.00
1349,730.00
1350,738.00
1351,737.00
1352,730.00
1353,727.00
1354,736.00
1355,726.00
1356,730.00
1357,733.00
1358,727.00
1359,726.00
1360,727.00
1361,726.00
1362,725.00
1363,731.00
1364,726.00
1365,720.00
1366,733.00
1367,723.00
1368,723.00
1369,726.00
1370,726.00
1371,728.00
1372,725.00
1373,726.00
1374,722.00
1375,730.00
1376,726.00
1377,728.00
1378,725.00
1379,732.00
1380,717.00
1381,724.00
1382,725.00
1383,719.00
1384,716.00
1385,716.00
1386,717.00
1387,714.00
1388,713.00
1389,713.00
1390,711.00
1391,706.00
1392,708.00
1393,703.00
1394,692.00
1395,701.00
1396,690.00
1397,693.00
1398,688.00
1399,687.00
1400,683.00
1401,682.00
1402,677.00
1403,677.00
1404,663.00
1405,659.00
1406,666.00
1407,660.00
1408,664.00
1409,663.00
1410,656.00
1411,664.00
1412,648.00
1413,650.00
1414,651.00
1415,642.00
1416,646.00
1417,644.00
1418,642.00
1419,639.00
1420,641.00
1421,635.00
1422,625.00
1423,630.00
1424,628.00
1425,631.00
1426,620.00
1427,623.00
1428,619.00
1429,621.00
1430,624.00
1431,608.00
1432,618.00
1433,615.00
1434,620.00
1435,614.00
1436,620.00
1437,617.00
1438,615.00
1439,617.00
1440,617.00
1441,606.00
1442,610.00
1443,611.00
1444,619.00
1445,610.00
1446,610.00
1447,612.00
1448,612.00
1449,606.00
1450,621.00
1451,617.00
1452,602.00
1453,611.00
1454,610.00
1455,606.00
1456,610.00
1457,612.00
1458,608.00
1459,613.00
1460,620.00
1461,607.00
1462,615.00
1463,600.00
1464,605.00
1465,610.00
1466,610.00
1467,611.00
1468,607.00
1469,605.00
1470,605.00
1471,610.00
1472,611.00
1473,607.00
1474,598.00
1475,609.00
1476,616.00
1477,617.00
1478,611.00
1479,622.00
1480,624.00
1481,627.00
1482,634.00
1483,631.00
1484,632.00
1485,631.00
1486,641.00
1487,645.00
1488,647.00
1489,651.00
1490,658.00
1491,669.00
1492,675.00
1493,674.00
1494,683.00
1495,683.00
1496,683.00
1497,696.00
1498,699.00
1499,693.00
1500,696.00
1501,701.00
1502,705.00
1503,703.00
1504,707.00
1505,703.00
1506,707.00
1507,718.00
1508,719.00
1509,718.00
1510,720.00
1511,724.00
1512,723.00
1513,728.00
1514,730.00
1515,735.00
1516,728.00
1517,734.00
1518,736.00
1519,737.00
1520,730.00
1521,734.00
1522,734.00
1523,736.00
1524,728.00
1525,738.00
1526,743.00
1527,739.00
1528,743.00
1529,742.00
1530,743.00
1531,739.00
1532,743.00
1533,746.00
1534,742.00
1535,743.00
1536,741.00
1537,736.00
1538,738.00
1539,744.00
1540,737.00
1541,737.00
1542,741.00
1543,725.00
1544,734.00
1545,739.00
1546,738.00
1547,738.00
1548,747.00
1549,745.00
1550,749.00
1551,739.00
1552,749.00
1553,743.00
1554,741.00
1555,743.00
1556,742.00
1557,740.00
1558,739.00
1559,743.00
1560,736.00
1561,736.00
1562,743.00
1563,734.00
1564,736.00
1565,741.00
1566,736.00
1567,736.00
1568,737.00
1569,735.00
1570,736.00
1571,741.00
1572,736.00
1573,731.00
1574,737.00
1575,732.00
1576,744.00
1577,740.00
1578,735.00
1579,734.00
1580,736.00
1581,734.00
1582,734.00
1583,732.00
1584,738.00
1585,729.00
1586,726.00
1587,734.00
1588,729.00
1589,728.00
1590,729.00
1591,727.00
1592,732.00
1593,726.00
1594,727.00
1595,740.00
1596,721.00
1597,731.00
1598,733.00
1599,728.00
1600,737.00
1601,730.00
1602,727.00
1603,730.00
1604,738.00
1605,734.00
1606,736.00
1607,733.00
1608,739.00
1609,732.00
1610,735.00
1611,729.00
1612,734.00
1613,733.00
1614,734.00
1615,725.00
1616,728.00
1617,728.00
1618,723.00
1619,719.00
1620,712.00
1621,707.00
1622,708.00
1623,708.00
1624,705.00
1625,705.00
1626,693.00
1627,692.00
1628,692.00
1629,688.00
1630,693.00
1631,684.00
1632,689.00
1633,679.00
1634,677.00
1635,673.00
1636,670.00
1637,662.00
1638,665.00
1639,666.00
1640,655.00
1641,652.00
1642,655.00
1643,635.00
1644,644.00
1645,642.00
1646,644.00
1647,636.00
1648,638.00
1649,638.00
1650,633.00
1651,635.00
1652,639.00
1653,629.00
1654,633.00
1655,616.00
1656,633.00
1657,627.00
1658,625.00
1659,629.00
1660,622.00
1661,627.00
1662,620.00
1663,622.00
1664,620.00
1665,625.00
1666,619.00
1667,618.00
1668,619.00
1669,617.00
1670,614.00
1671,620.00
1672,615.00
1673,621.00
1674,617.00
1675,613.00
1676,615.00
1677,623.00
1678,613.00
1679,617.00
1680,609.00
1681,613.00
1682,610.00
1683,610.00
1684,613.00
1685,611.00
1686,608.00
1687,617.00
1688,610.00
1689,608.00
1690,607.00
1691,616.00
1692,607.00
1693,622.00
1694,610.00
1695,607.00
1696,614.00
1697,616.00
1698,616.00
1699,613.00
1700,623.00
1701,599.00
1702,619.00
1703,629.00
1704,628.00
1705,628.00
1706,631.00
1707,637.00
1708,636.00
1709,640.00
1710,645.00
1711,644.00
1712,647.00
1713,655.00
1714,669.00
1715,660.00
1716,665.00
1717,668.00
1718,671.00
1719,680.00
1720,682.00
1721,684.00
1722,685.00
1723,691.00
1724,703.00
1725,702.00
1726,712.00
1727,707.00
1728,713.00
1729,714.00
1730,714.00
1731,718.00
1732,729.00
1733,721.00
1734,727.00
1735,730.00
1736,734.00
1737,728.00
1738,735.00
1739,733.00
1740,739.00
1741,736.00
1742,743.00
1743,734.00
1744,732.00
1745,739.00
1746,738.00
1747,739.00
1748,736.00
1749,737.00
1750,734.00
1751,736.00
1752,738.00
1753,734.00
1754,735.00
1755,743.00
1756,737.00
1757,729.00
1758,735.00
1759,733.00
1760,730.00
1761,733.00
1762,716.00
1763,737.00
1764,736.00
1765,737.00
1766,738.00
1767,736.00
1768,741.00
1769,734.00
1770,734.00
1771,734.00
1772,733.00
1773,738.00
1774,734.00
1775,736.00
1776,731.00
1777,731.00
1778,731.00
1779,737.00
1780,731.00
1781,735.00
1782,729.00
1783,728.00
1784,730.00
1785,725.00
1786,726.00
1787,729.00
1788,726.00
1789,729.00
1790,729.00
1791,727.00
1792,729.00
1793,731.00
1794,731.00
1795,729.00
1796,725.00
1797,719.00
1798,718.00
1799,722.00
1800,724.00
1801,722.00
1802,718.00
1803,717.00
1804,717.00
1805,715.00
1806,723.00
1807,721.00
1808,721.00
1809,716.00
1810,722.00
1811,719.00
1812,720.00
1813,721.00
1814,724.00
1815,722.00
1816,723.00
1817,723.00
1818,716.00
1819,722.00
1820,720.00
1821,714.00
1822,731.00
1823,715.00
1824,719.00
1825,714.00
1826,716.00
1827,720.00
1828,697.00
1829,712.00
1830,710.00
1831,708.00
1832,712.00
1833,705.00
1834,710.00
1835,698.00
1836,701.00
1837,694.00
1838,692.00
1839,692.00
1840,681.00
1841,687.00
1842,688.00
1843,683.00
1844,279.00
1845,677.00
1846,673.00
1847,674.00
1848,678.00
1849,670.00
1850,663.00
1851,660.00
1852,663.00
1853,658.00
1854,653.00
1855,651.00
1856,650.00
1857,645.00
1858,643.00
1859,638.00
1860,631.00
1861,638.00
1862,631.00
1863,630.00
1864,630.00
1865,631.00
1866,625.00
1867,621.00
1868,619.00
1869,623.00
1870,616.00
1871,619.00
1872,617.00
1873,623.00
1874,614.00
1875,614.00
1876,615.00
1877,617.00
1878,617.00
1879,615.00
1880,614.00
1881,608.00
1882,607.00
1883,584.00
1884,611.00
1885,607.00
1886,607.00
1887,605.00
1888,609.00
1889,612.00
1890,614.00
1891,612.00
1892,601.00
1893,603.00
1894,603.00
1895,602.00
1896,607.00
1897,604.00
1898,603.00
1899,602.00
1900,607.00
1901,599.00
1902,602.00
1903,604.00
1904,606.00
1905,606.00
1906,605.00
1907,596.00
1908,599.00
1909,595.00
1910,602.00
1911,600.00
1912,603.00
1913,600.00
1914,600.00
1915,611.00
1916,600.00
1917,605.00
1918,610.00
1919,606.00
1920,607.00
1921,608.00
1922,612.00
1923,615.00
1924,620.00
1925,619.00
1926,624.00
1927,631.00
1928,635.00
1929,639.00
1930,645.00
1931,651.00
1932,658.00
1933,655.00
1934,669.00
1935,670.00
1936,673.00
1937,679.00
1938,686.00
1939,687.00
1940,690.00
1941,691.00
1942,702.00
1943,701.00
1944,706.00
1945,709.00
1946,720.00
1947,719.00
1948,718.00
1949,715.00
1950,730.00
1951,725.00
1952,719.00
1953,725.00
1954,729.00
1955,722.00
1956,721.00
1957,728.00
1958,730.00
1959,734.00
1960,731.00
1961,734.00
1962,728.00
1963,734.00
1964,739.00
1965,735.00
1966,737.00
1967,731.00
1968,736.00
1969,736.00
1970,746.00
1971,728.00
1972,727.00
1973,734.00
1974,731.00
1975,730.00
1976,726.00
1977,732.00
1978,723.00
1979,733.00
1980,729.00
1981,727.00
1982,726.00
1983,725.00
1984,724.00
1985,729.00
1986,731.00
1987,728.00
1988,724.00
1989,726.00
1990,723.00
1991,727.00
1992,723.00
1993,721.00
1994,725.00
1995,727.00
1996,729.00
1997,721.00
1998,727.00
1999,719.00
2000,722.00
2001,722.00
2002,713.00
2003,720.00
2004,720.00
2005,724.00
2006,714.00
2007,717.00
2008,721.00
2009,718.00
2010,719.00
2011,719.00
2012,719.00
2013,718.00
2014,717.00
2015,717.00
2016,706.00
2017,723.00
2018,700.00
2019,718.00
2020,714.00
2021,713.00
2022,714.00
2023,706.00
2024,712.00
2025,711.00
2026,715.00
2027,717.00
2028,709.00
2029,706.00
2030,712.00
2031,710.00
2032,708.00
2033,715.00
2034,690.00
2035,710.00
2036,709.00
2037,715.00
2038,707.00
2039,706.00
2040,711.00
2041,703.00
2042,704.00
2043,707.00
2044,710.00
2045,700.00
2046,702.00
2047,705.00
2048,696.00
2049,697.00
2050,698.00
2051,694.00
2052,694.00
2053,691.00
2054,692.00
2055,689.00
2056,686.00
2057,679.00
2058,669.00
2059,684.00
2060,691.00
2061,674.00
2062,677.00
2063,669.00
2064,674.00
2065,674.00
2066,670.00
2067,656.00
2068,665.00
2069,657.00
2070,657.00
2071,652.00
2072,657.00
2073,646.00
2074,647.00
2075,654.00
2076,645.00
2077,640.00
2078,643.00
2079,633.00
2080,637.00
2081,632.00
2082,630.00
2083,624.00
2084,623.00
2085,621.00
2086,623.00
2087,614.00
2088,620.00
2089,615.00
2090,586.00
2091,611.00
2092,604.00
2093,616.00
2094,610.00
2095,612.00
2096,605.00
2097,602.00
2098,599.00
2099,599.00
2100,601.00
2101,600.00
2102,597.00
2103,596.00
2104,595.00
2105,594.00
2106,593.00
2107,604.00
2108,595.00
2109,591.00
2110,599.00
2111,591.00
2112,594.00
2113,589.00
2114,598.00
2115,592.00
2116,597.00
2117,592.00
2118,584.00
2119,581.00
2120,586.00
2121,586.00
2122,594.00
2123,594.00
2124,583.00
2125,588.00
2126,589.00
2127,589.00
2128,587.00
2129,590.00
2130,590.00
2131,586.00
2132,589.00
2133,591.00
2134,592.00
2135,597.00
2136,597.00
2137,593.00
2138,598.00
2139,599.00
2140,591.00
2141,599.00
2142,602.00
2143,604.00
2144,618.00
2145,617.00
2146,622.00
2147,628.00
2148,633.00
2149,640.00
2150,643.00
2151,651.00
2152,653.00
2153,655.00
2154,657.00
2155,663.00
2156,664.00
2157,673.00
2158,677.00
2159,677.00
2160,678.00
2161,687.00
2162,684.00
2163,685.00
2164,691.00
2165,693.00
2166,694.00
2167,689.00
2168,701.00
2169,703.00
2170,716.00
2171,714.00
2172,712.00
2173,717.00
2174,717.00
2175,713.00
2176,725.00
2177,721.00
2178,721.00
2179,720.00
2180,718.00
2181,716.00
2182,721.00
2183,726.00
2184,728.00
2185,725.00
2186,730.00
2187,719.00
2188,727.00
2189,727.00
2190,733.00
2191,730.00
2192,737.00
2193,739.00
2194,730.00
2195,724.00
2196,730.00
2197,734.00
2198,722.00
2199,734.00
2200,732.00
2201,729.00
2202,730.00
2203,732.00
2204,736.00
2205,736.00
2206,738.00
2207,731.00
2208,734.00
2209,731.00
2210,732.00
2211,735.00
2212,736.00
2213,732.00
2214,720.00
2215,726.00
2216,728.00
2217,736.00
2218,737.00
2219,732.00
2220,725.00
2221,730.00
2222,734.00
2223,726.00
2224,732.00
2225,730.00
2226,722.00
2227,731.00
2228,732.00
2229,725.00
2230,722.00
2231,730.00
2232,728.00
2233,723.00
2234,725.00
2235,726.00
2236,720.00
2237,722.00
2238,725.00
2239,731.00
2240,720.00
2241,729.00
2242,725.00
2243,724.00
2244,727.00
2245,725.00
2246,711.00
2247,720.00
2248,725.00
2249,719.00
2250,721.00
2251,720.00
2252,718.00
2253,722.00
2254,719.00
2255,718.00
2256,714.00
2257,721.00
2258,721.00
2259,729.00
2260,728.00
2261,722.00
2262,720.00
2263,721.00
2264,719.00
2265,727.00
2266,725.00
2267,721.00
2268,713.00
2269,712.00
2270,713.00
2271,714.00
2272,704.00
2273,708.00
2274,702.00
2275,716.00
2276,705.00
2277,707.00
2278,694.00
2279,693.00
2280,690.00
2281,694.00
2282,686.00
2283,683.00
2284,681.00
2285,675.00
2286,676.00
2287,674.00
2288,666.00
2289,671.00
2290,663.00
2291,662.00
2292,663.00
2293,661.00
2294,651.00
2295,649.00
2296,648.00
2297,646.00
2298,644.00
2299,643.00
2300,640.00
2301,639.00
2302,637.00
2303,641.00
2304,634.00
2305,632.00
2306,635.00
2307,635.00
2308,631.00
2309,634.00
2310,621.00
2311,624.00
2312,618.00
2313,621.00
2314,617.00
2315,612.00
2316,612.00
2317,615.00
2318,601.00
2319,610.00
2320,606.00
2321,602.00
2322,608.00
2323,602.00
2324,600.00
2325,599.00
2326,597.00
2327,597.00
2328,613.00
2329,596.00
2330,599.00
2331,593.00
2332,597.00
2333,593.00
2334,595.00
2335,595.00
2336,595.00
2337,587.00
2338,600.00
2339,593.00
2340,592.00
2341,593.00
2342,590.00
2343,599.00
2344,594.00
2345,588.00
2346,587.00
2347,583.00
2348,594.00
2349,592.00
2350,597.00
2351,591.00
2352,592.00
2353,597.00
2354,606.00
2355,603.00
2356,614.00
2357,618.00
2358,621.00
2359,615.00
2360,629.00
2361,637.00
2362,642.00
2363,646.00
2364,654.00
2365,653.00
2366,669.00
2367,670.00
2368,674.00
2369,681.00
2370,688.00
2371,688.00
2372,687.00
2373,704.00
2374,707.00
2375,717.00
2376,726.00
2377,723.00
2378,722.00
2379,718.00
2380,722.00
2381,715.00
2382,718.00
2383,719.00
2384,714.00
2385,721.00
2386,724.00
2387,726.00
2388,726.00
2389,719.00
2390,723.00
2391,730.00
2392,725.00
2393,726.00
2394,726.00
2395,729.00
2396,734.00
2397,732.00
2398,731.00
2399,723.00
2400,729.00
2401,726.00
2402,735.00
2403,723.00
2404,726.00
2405,734.00
2406,730.00
2407,729.00
2408,732.00
2409,734.00
2410,724.00
2411,725.00
2412,729.00
2413,726.00
2414,729.00
2415,728.00
2416,723.00
2417,724.00
2418,722.00
2419,723.00
2420,728.00
2421,723.00
2422,719.00
2423,723.00
2424,722.00
2425,720.00
2426,720.00
2427,719.00
2428,723.00
2429,718.00
2430,719.00
2431,722.00
2432,718.00
2433,719.00
2434,720.00
2435,722.00
2436,720.00
2437,719.00
2438,719.00
2439,719.00
2440,720.00
2441,727.00
2442,717.00
2443,721.00
2444,731.00
2445,722.00
2446,709.00
2447,715.00
2448,717.00
2449,715.00
2450,718.00
2451,717.00
2452,714.00
2453,710.00
2454,712.00
2455,719.00
2456,712.00
2457,716.00
2458,712.00
2459,713.00
2460,713.00
2461,714.00
2462,709.00
2463,714.00
2464,709.00
2465,702.00
2466,712.00
2467,711.00
2468,706.00
2469,705.00
2470,704.00
2471,706.00
2472,702.00
2473,703.00
2474,702.00
2475,703.00
2476,709.00
2477,710.00
2478,704.00
2479,691.00
2480,699.00
2481,700.00
2482,694.00
2483,696.00
2484,685.00
2485,686.00
2486,685.00
2487,687.00
2488,683.00
2489,678.00
2490,677.00
2491,674.00
2492,675.00
2493,676.00
2494,666.00
2495,667.00
2496,666.00
2497,661.00
2498,650.00
2499,656.00
2500,654.00
2501,651.00
2502,648.00
2503,647.00
2504,643.00
2505,630.00
2506,633.00
2507,638.00
2508,633.00
2509,635.00
2510,629.00
2511,625.00
2512,625.00
2513,625.00
2514,622.00
2515,621.00
2516,621.00
2517,618.00
2518,620.00
2519,620.00
2520,614.00
2521,613.00
2522,614.00
2523,613.00
2524,610.00
2525,614.00
2526,617.00
2527,609.00
2528,614.00
2529,610.00
2530,609.00
2531,612.00
2532,614.00
2533,606.00
2534,601.00
2535,610.00
2536,616.00
2537,599.00
2538,606.00
2539,601.00
2540,604.00
2541,605.00
2542,604.00
2543,596.00
2544,602.00
2545,605.00
2546,602.00
2547,600.00
2548,602.00
2549,604.00
2550,607.00
2551,609.00
2552,601.00
2553,603.00
2554,604.00
2555,612.00
2556,610.00
2557,611.00
2558,611.00
2559,615.00
2560,620.00
2561,622.00
2562,623.00
2563,627.00
2564,628.00
2565,636.00
2566,635.00
2567,648.00
2568,647.00
2569,657.00
2570,659.00
2571,662.00
2572,659.00
2573,666.00
2574,667.00
2575,674.00
2576,679.00
2577,693.00
2578,683.00
2579,686.00
2580,687.00
2581,699.00
2582,699.00
2583,714.00
2584,710.00
2585,697.00
2586,706.00
2587,710.00
2588,713.00
2589,720.00
2590,716.00
2591,716.00
2592,719.00
2593,720.00
2594,721.00
2595,720.00
2596,725.00
2597,732.00
2598,729.00
2599,733.00
2600,731.00
2601,739.00
2602,732.00
2603,742.00
2604,737.00
2605,740.00
2606,736.00
2607,734.00
2608,738.00
2609,740.00
2610,741.00
2611,733.00
2612,740.00
2613,745.00
2614,744.00
2615,745.00
2616,744.00
2617,746.00
2618,735.00
2619,745.00
2620,749.00
2621,749.00
2622,748.00
2623,746.00
2624,748.00
2625,753.00
2626,752.00
2627,738.00
2628,744.00
2629,728.00
2630,743.00
2631,740.00
2632,741.00
2633,741.00
2634,739.00
2635,749.00
2636,742.00
2637,740.00
2638,740.00
2639,738.00
2640,738.00
2641,739.00
2642,740.00
2643,739.00
2644,736.00
2645,742.00
2646,737.00
2647,736.00
2648,740.00
2649,738.00
2650,740.00
2651,736.00
2652,736.00
2653,736.00
2654,731.00
2655,736.00
2656,738.00
2657,737.00
2658,735.00
2659,733.00
2660,735.00
2661,752.00
2662,729.00
2663,731.00
2664,737.00
2665,736.00
2666,733.00
2667,734.00
2668,732.00
2669,738.00
2670,730.00
2671,731.00
2672,729.00
2673,734.00
2674,719.00
2675,733.00
2676,736.00
2677,737.00
2678,737.00
2679,736.00
2680,746.00
2681,739.00
2682,734.00
2683,739.00
2684,738.00
2685,742.00
2686,740.00
2687,742.00
2688,745.00
2689,740.00
2690,745.00
2691,739.00
2692,737.00
2693,736.00
2694,744.00
2695,737.00
2696,736.00
2697,735.00
2698,736.00
2699,731.00
2700,734.00
2701,729.00
2702,731.00
2703,731.00
2704,728.00
2705,728.00
2706,726.00
2707,721.00
2708,716.00
2709,719.00
2710,718.00
2711,711.00
2712,704.00
2713,704.00
2714,701.00
2715,695.00
2716,699.00
2717,699.00
2718,691.00
2719,691.00
2720,689.00
2721,697.00
2722,681.00
2723,689.00
2724,678.00
2725,677.00
2726,672.00
2727,671.00
2728,667.00
2729,671.00
2730,665.00
2731,669.00
2732,664.00
2733,660.00
2734,662.00
2735,663.00
2736,659.00
2737,654.00
2738,649.00
2739,656.00
2740,650.00
2741,650.00
2742,649.00
2743,650.00
2744,649.00
2745,643.00
2746,643.00
2747,644.00
2748,640.00
2749,647.00
2750,639.00
2751,639.00
2752,642.00
2753,643.00
2754,634.00
2755,641.00
2756,639.00
2757,626.00
2758,634.00
2759,633.00
2760,630.00
2761,636.00
2762,633.00
2763,635.00
2764,632.00
2765,628.00
2766,631.00
2767,630.00
2768,630.00
2769,633.00
2770,625.00
2771,626.00
2772,632.00
2773,628.00
2774,634.00
2775,631.00
2776,627.00
2777,631.00
2778,632.00
2779,637.00
2780,635.00
2781,644.00
2782,639.00
2783,648.00
2784,658.00
2785,658.00
2786,662.00
2787,663.00
2788,667.00
2789,673.00
2790,677.00
2791,678.00
2792,677.00
2793,680.00
2794,688.00
2795,691.00
2796,686.00
2797,691.00
2798,700.00
2799,702.00
2800,707.00
2801,711.00
2802,704.00
2803,708.00
2804,713.00
2805,712.00
2806,715.00
2807,716.00
2808,724.00
2809,724.00
2810,724.00
2811,732.00
2812,724.00
2813,727.00
2814,732.00
2815,735.00
2816,734.00
2817,740.00
2818,736.00
2819,739.00
2820,739.00
2821,741.00
2822,736.00
2823,742.00
2824,739.00
2825,738.00
2826,741.00
2827,750.00
2828,744.00
2829,739.00
2830,743.00
2831,750.00
2832,744.00
2833,747.00
2834,745.00
2835,741.00
2836,755.00
2837,746.00
2838,746.00
2839,747.00
2840,747.00
2841,751.00
2842,752.00
2843,745.00
2844,752.00
2845,751.00
2846,751.00
2847,753.00
2848,754.00
2849,750.00
2850,752.00
2851,752.00
2852,753.00
2853,755.00
2854,750.00
2855,747.00
2856,748.00
2857,749.00
2858,746.00
2859,753.00
2860,752.00
2861,744.00
2862,752.00
2863,751.00
2864,750.00
2865,741.00
2866,750.00
2867,748.00
2868,743.00
2869,741.00
2870,746.00
2871,744.00
2872,744.00
2873,743.00
2874,742.00
2875,743.00
2876,740.00
2877,741.00
2878,743.00
2879,749.00
2880,745.00
2881,736.00
2882,735.00
2883,742.00
2884,744.00
2885,740.00
2886,743.00
2887,742.00
2888,739.00
2889,743.00
2890,741.00
2891,740.00
2892,743.00
2893,742.00
2894,761.00
2895,743.00
2896,739.00
2897,743.00
2898,742.00
2899,742.00
2900,741.00
2901,739.00
2902,742.00
2903,738.00
2904,749.00
2905,739.00
2906,747.00
2907,736.00
2908,751.00
2909,744.00
2910,743.00
2911,743.00
2912,751.00
2913,741.00
2914,740.00
2915,742.00
2916,741.00
2917,746.00
2918,743.00
2919,743.00
2920,743.00
2921,748.00
2922,738.00
2923,747.00
2924,743.00
2925,745.00
2926,742.00
2927,741.00
2928,743.00
2929,742.00
2930,746.00
2931,746.00
2932,742.00
2933,737.00
2934,736.00
2935,740.00
2936,739.00
2937,742.00
2938,745.00
2939,742.00
2940,739.00
2941,747.00
2942,747.00
2943,737.00
2944,734.00
2945,736.00
2946,732.00
2947,732.00
2948,733.00
2949,736.00
2950,727.00
2951,731.00
2952,735.00
2953,721.00
2954,720.00
2955,720.00
2956,721.00
2957,715.00
2958,714.00
2959,707.00
2960,703.00
2961,710.00
2962,705.00
2963,702.00
2964,703.00
2965,700.00
2966,694.00
2967,695.00
2968,709.00
2969,693.00
2970,694.00
2971,698.00
2972,690.00
2973,685.00
2974,693.00
2975,692.00
2976,690.00
2977,684.00
2978,684.00
2979,680.00
2980,683.00
2981,685.00
2982,676.00
2983,674.00
2984,676.00
2985,673.00
2986,668.00
2987,672.00
2988,669.00
2989,674.00
2990,668.00
2991,668.00
2992,663.00
2993,668.00
2994,670.00
2995,668.00
2996,668.00
2997,681.00
2998,667.00
2999,664.00
3000,662.00
3001,667.00
3002,661.00
3003,662.00
3004,661.00
3005,658.00
3006,660.00
3007,666.00
3008,660.00
3009,659.00
3010,663.00
3011,665.00
3012,658.00
3013,667.00
3014,665.00
3015,664.00
3016,665.00
3017,669.00
3018,673.00
3019,669.00
3020,676.00
3021,681.00
3022,679.00
3023,684.00
3024,690.00
3025,694.00
3026,700.00
3027,707.00
3028,704.00
3029,701.00
3030,712.00
3031,712.00
3032,696.00
3033,721.00
3034,729.00
3035,722.00
3036,728.00
3037,737.00
3038,737.00
3039,740.00
3040,743.00
3041,742.00
3042,735.00
3043,744.00
3044,747.00
3045,740.00
3046,752.00
3047,751.00
3048,755.00
3049,742.00
3050,751.00
3051,744.00
3052,746.00
3053,755.00
3054,751.00
3055,750.00
3056,754.00
3057,749.00
3058,749.00
3059,753.00
3060,758.00
3061,756.00
3062,751.00
3063,752.00
3064,755.00
3065,753.00
3066,760.00
3067,749.00
3068,749.00
3069,752.00
3070,752.00
3071,754.00
3072,753.00
3073,757.00
3074,755.00
3075,759.00
3076,754.00
3077,757.00
3078,761.00
3079,757.00
3080,762.00
3081,755.00
3082,761.00
3083,758.00
3084,756.00
3085,766.00
3086,757.00
3087,753.00
3088,754.00
3089,751.00
3090,754.00
3091,755.00
3092,759.00
3093,754.00
3094,747.00
3095,747.00
3096,756.00
3097,741.00
3098,757.00
3099,755.00
3100,748.00
3101,750.00
3102,749.00
3103,755.00
3104,754.00
3105,747.00
3106,754.00
3107,746.00
3108,744.00
3109,749.00
3110,747.00
3111,743.00
3112,742.00
3113,745.00
3114,743.00
3115,744.00
3116,746.00
3117,743.00
3118,742.00
3119,747.00
3120,743.00
3121,738.00
3122,754.00
3123,750.00
3124,754.00
3125,750.00
3126,751.00
3127,758.00
3128,755.00
3129,755.00
3130,759.00
3131,755.00
3132,759.00
3133,760.00
3134,757.00
3135,764.00
3136,764.00
3137,759.00
3138,760.00
3139,763.00
3140,765.00
3141,763.00
3142,769.00
3143,757.00
3144,764.00
3145,761.00
3146,764.00
3147,757.00
3148,768.00
3149,762.00
3150,763.00
3151,752.00
3152,754.00
3153,753.00
3154,753.00
3155,753.00
3156,753.00
3157,747.00
3158,746.00
3159,747.00
3160,747.00
3161,752.00
3162,743.00
3163,733.00
3164,739.00
3165,738.00
3166,739.00
3167,734.00
3168,735.00
3169,728.00
3170,722.00
3171,723.00
3172,698.00
3173,716.00
3174,713.00
3175,709.00
3176,711.00
3177,695.00
3178,708.00
3179,703.00
3180,717.00
3181,701.00
3182,698.00
3183,697.00
3184,695.00
3185,694.00
3186,687.00
3187,686.00
3188,688.00
3189,684.00
3190,683.00
3191,683.00
3192,684.00
3193,679.00
3194,676.00
3195,679.00
3196,675.00
3197,677.00
3198,676.00
3199,688.00
3200,673.00
3201,673.00
3202,678.00
3203,669.00
3204,669.00
3205,672.00
3206,666.00
3207,673.00
3208,668.00
3209,670.00
3210,664.00
3211,671.00
3212,688.00
3213,672.00
3214,670.00
3215,673.00
3216,681.00
3217,683.00
3218,698.00
3219,699.00
3220,703.00
3221,714.00
3222,727.00
3223,733.00
3224,740.00
3225,754.00
3226,751.00
3227,762.00
3228,763.00
3229,767.00
3230,773.00
3231,773.00
3232,771.00
3233,773.00
3234,777.00
3235,773.00
3236,772.00
3237,773.00
3238,781.00
3239,776.00
3240,777.00
3241,782.00
3242,784.00
3243,783.00
3244,787.00
3245,786.00
3246,787.00
3247,781.00
3248,782.00
3249,782.00
3250,774.00
3251,780.00
3252,775.00
3253,772.00
3254,787.00
3255,772.00
3256,778.00
3257,773.00
3258,774.00
3259,774.00
3260,775.00
3261,775.00
3262,775.00
3263,772.00
3264,781.00
3265,781.00
3266,776.00
3267,778.00
3268,783.00
3269,782.00
3270,787.00
3271,787.00
3272,783.00
3273,783.00
3274,791.00
3275,789.00
3276,780.00
3277,786.00
3278,787.00
3279,787.00
3280,789.00
3281,795.00
3282,790.00
3283,788.00
3284,793.00
3285,792.00
3286,788.00
3287,793.00
3288,793.00
3289,793.00
3290,786.00
3291,792.00
3292,785.00
3293,789.00
3294,789.00
3295,794.00
3296,790.00
3297,793.00
3298,790.00
3299,790.00
3300,776.00
3301,788.00
3302,791.00
3303,787.00
3304,793.00
3305,792.00
3306,783.00
3307,796.00
3308,785.00
3309,783.00
3310,787.00
3311,789.00
3312,789.00
3313,787.00
3314,791.00
3315,784.00
3316,780.00
3317,783.00
3318,782.00
3319,782.00
3320,777.00
3321,780.00
3322,776.00
3323,777.00
3324,776.00
3325,777.00
3326,771.00
3327,771.00
3328,753.00
3329,766.00
3330,775.00
3331,773.00
3332,761.00
3333,760.00
3334,758.00
3335,760.00
3336,756.00
3337,761.00
3338,760.00
3339,754.00
3340,757.00
3341,752.00
3342,750.00
3343,753.00
3344,745.00
3345,748.00
3346,749.00
3347,740.00
3348,743.00
3349,741.00
3350,739.00
3351,736.00
3352,726.00
3353,737.00
3354,731.00
3355,733.00
3356,732.00
3357,733.00
3358,724.00
3359,718.00
3360,721.00
3361,724.00
3362,716.00
3363,706.00
3364,719.00
3365,711.00
3366,713.00
3367,711.00
3368,707.00
3369,705.00
3370,706.00
3371,704.00
3372,700.00
3373,702.00
3374,701.00
3375,699.00
3376,705.00
3377,698.00
3378,700.00
3379,695.00
3380,696.00
3381,696.00
3382,693.00
3383,697.00
3384,698.00
3385,695.00
3386,693.00
3387,695.00
3388,691.00
3389,690.00
3390,687.00
3391,688.00
3392,689.00
3393,690.00
3394,690.00
3395,684.00
3396,686.00
3397,686.00
3398,688.00
3399,688.00
3400,685.00
3401,682.00
3402,689.00
3403,684.00
3404,686.00
3405,685.00
3406,688.00
3407,683.00
3408,680.00
3409,679.00
3410,681.00
3411,683.00
3412,680.00
3413,681.00
3414,684.00
3415,678.00
3416,678.00
3417,683.00
3418,682.00
3419,681.00
3420,692.00
3421,689.00
3422,691.00
3423,699.00
3424,716.00
3425,712.00
3426,718.00
3427,722.00
3428,727.00
3429,736.00
3430,746.00
3431,750.00
3432,775.00
3433,761.00
3434,759.00
3435,771.00
3436,773.00
3437,779.00
3438,776.00
3439,784.00
3440,781.00
3441,781.00
3442,785.00
3443,788.00
3444,784.00
3445,800.00
3446,786.00
3447,788.00
3448,790.00
3449,786.00
3450,791.00
3451,789.00
3452,780.00
3453,773.00
3454,784.00
3455,785.00
3456,788.00
3457,786.00
3458,778.00
3459,779.00
3460,786.00
3461,785.00
3462,781.00
3463,771.00
3464,779.00
3465,773.00
3466,773.00
3467,775.00
3468,772.00
3469,768.00
3470,771.00
3471,770.00
3472,773.00
3473,770.00
3474,777.00
3475,768.00
3476,771.00
3477,770.00
3478,770.00
3479,772.00
3480,776.00
3481,772.00
3482,776.00
3483,780.00
3484,775.00
3485,776.00
3486,778.00
3487,785.00
3488,773.00
3489,774.00
3490,779.00
3491,776.00
3492,777.00
3493,778.00
3494,781.00
3495,773.00
3496,780.00
3497,781.00
3498,782.00
3499,782.00
3500,783.00
3501,783.00
3502,775.00
3503,783.00
3504,785.00
3505,788.00
3506,786.00
3507,781.00
3508,777.00
3509,781.00
3510,769.00
3511,783.00
3512,780.00
3513,779.00
3514,780.00
3515,783.00
3516,779.00
3517,787.00
3518,778.00
3519,780.00
3520,779.00
3521,778.00
3522,776.00
3523,775.00
3524,776.00
3525,777.00
3526,777.00
3527,772.00
3528,772.00
3529,772.00
3530,773.00
3531,774.00
3532,761.00
3533,768.00
3534,770.00
3535,773.00
3536,768.00
3537,765.00
3538,763.00
3539,762.00
3540,767.00
3541,765.00
3542,760.00
3543,759.00
3544,762.00
3545,763.00
3546,761.00
3547,759.00
3548,753.00
3549,758.00
3550,749.00
3551,740.00
3552,757.00
3553,760.00
3554,753.00
3555,750.00
3556,751.00
3557,753.00
3558,747.00
3559,751.00
3560,749.00
3561,750.00
3562,743.00
3563,746.00
3564,747.00
3565,739.00
3566,749.00
3567,740.00
3568,734.00
3569,731.00
3570,740.00
3571,733.00
3572,727.00
3573,738.00
3574,729.00
3575,725.00
3576,731.00
3577,725.00
3578,726.00
3579,728.00
3580,723.00
3581,719.00
3582,716.00
3583,717.00
3584,721.00
3585,715.00
3586,714.00
3587,715.00
3588,723.00
3589,711.00
3590,717.00
3591,710.00
3592,705.00
3593,709.00
3594,711.00
3595,708.00
3596,705.00
3597,705.00
3598,702.00
3599,699.00
3600,701.00
3601,698.00
3602,698.00
3603,699.00
3604,696.00
3605,699.00
3606,699.00
3607,697.00
3608,695.00
3609,699.00
3610,695.00
3611,694.00
3612,691.00
3613,692.00
3614,671.00
3615,701.00
3616,694.00
3617,691.00
3618,693.00
3619,695.00
3620,690.00
3621,699.00
3622,695.00
3623,694.00
3624,692.00
3625,697.00
3626,710.00
3627,708.00
3628,722.00
3629,731.00
3630,737.00
3631,759.00
3632,763.00
3633,771.00
3634,787.00
3635,788.00
3636,791.00
3637,788.00
3638,787.00
3639,789.00
3640,790.00
3641,789.00
3642,794.00
3643,788.00
3644,793.00
3645,789.00
3646,789.00
3647,791.00
3648,787.00
3649,785.00
3650,790.00
3651,795.00
3652,789.00
3653,795.00
3654,791.00
3655,786.00
3656,787.00
3657,798.00
3658,790.00
3659,787.00
3660,796.00
3661,787.00
3662,781.00
3663,785.00
3664,786.00
3665,781.00
3666,782.00
3667,781.00
3668,790.00
3669,781.00
3670,787.00
3671,790.00
3672,780.00
3673,785.00
3674,784.00
3675,792.00
3676,797.00
3677,787.00
3678,795.00
3679,799.00
3680,805.00
3681,802.00
3682,798.00
3683,790.00
3684,807.00
3685,803.00
3686,808.00
3687,806.00
3688,806.00
3689,813.00
3690,814.00
3691,811.00
3692,807.00
3693,814.00
3694,813.00
3695,812.00
3696,809.00
3697,806.00
3698,807.00
3699,807.00
3700,812.00
3701,806.00
3702,804.00
3703,811.00
3704,816.00
3705,812.00
3706,808.00
3707,812.00
3708,808.00
3709,811.00
3710,797.00
3711,809.00
3712,790.00
3713,806.00
3714,805.00
3715,807.00
3716,805.00
3717,810.00
3718,810.00
3719,808.00
3720,812.00
3721,799.00
3722,814.00
3723,807.00
3724,808.00
3725,809.00
3726,803.00
3727,813.00
3728,807.00
3729,802.00
3730,805.00
3731,810.00
3732,807.00
3733,800.00
3734,802.00
3735,805.00
3736,798.00
3737,800.00
3738,803.00
3739,795.00
3740,795.00
3741,800.00
3742,797.00
3743,792.00
3744,798.00
3745,792.00
3746,790.00
3747,791.00
3748,792.00
3749,779.00
3750,785.00
3751,787.00
3752,777.00
3753,785.00
3754,785.00
3755,785.00
3756,780.00
3757,781.00
3758,785.00
3759,777.00
3760,776.00
3761,785.00
3762,776.00
3763,776.00
3764,773.00
3765,773.00
3766,767.00
3767,769.00
3768,768.00
3769,769.00
3770,761.00
3771,769.00
3772,763.00
3773,763.00
3774,766.00
3775,754.00
3776,769.00
3777,759.00
3778,755.00
3779,753.00
3780,748.00
3781,731.00
3782,753.00
3783,747.00
3784,748.00
3785,749.00
3786,743.00
3787,736.00
3788,739.00
3789,736.00
3790,735.00
3791,735.00
3792,738.00
3793,729.00
3794,731.00
3795,739.00
3796,733.00
3797,729.00
3798,727.00
3799,735.00
3800,724.00
3801,732.00
3802,726.00
3803,725.00
3804,720.00
3805,724.00
3806,719.00
3807,714.00
3808,718.00
3809,717.00
3810,713.00
3811,716.00
3812,712.00
3813,713.00
3814,710.00
3815,711.00
3816,707.00
3817,707.00
3818,707.00
3819,711.00
3820,708.00
3821,713.00
3822,701.00
3823,701.00
3824,713.00
3825,723.00
3826,738.00
3827,740.00
3828,756.00
3829,757.00
3830,765.00
3831,779.00
3832,788.00
3833,794.00
3834,795.00
3835,802.00
3836,805.00
3837,807.00
3838,813.00
3839,811.00
3840,808.00
3841,805.00
3842,814.00
3843,811.00
3844,813.00
3845,805.00
3846,802.00
3847,798.00
3848,800.00
3849,802.00
3850,792.00
3851,792.00
3852,802.00
3853,789.00
3854,787.00
3855,791.00
3856,788.00
3857,787.00
3858,788.00
3859,790.00
3860,782.00
3861,787.00
3862,790.00
3863,791.00
3864,794.00
3865,798.00
3866,798.00
3867,797.00
3868,800.00
3869,797.00
3870,792.00
3871,802.00
3872,794.00
3873,791.00
3874,801.00
3875,798.00
3876,797.00
3877,794.00
3878,800.00
3879,791.00
3880,796.00
3881,797.00
3882,799.00
3883,790.00
3884,793.00
3885,799.00
3886,793.00
3887,794.00
3888,791.00
3889,791.00
3890,792.00
3891,801.00
3892,791.00
3893,792.00
3894,788.00
3895,792.00
3896,783.00
3897,781.00
3898,786.00
3899,787.00
3900,784.00
3901,781.00
3902,779.00
3903,777.00
3904,785.00
3905,780.00
3906,776.00
3907,774.00
3908,775.00
3909,779.00
3910,773.00
3911,773.00
3912,775.00
3913,770.00
3914,770.00
3915,777.00
3916,792.00
3917,775.00
3918,768.00
3919,767.00
3920,769.00
3921,765.00
3922,764.00
3923,767.00
3924,761.00
3925,755.00
3926,759.00
3927,766.00
3928,755.00
3929,760.00
3930,753.00
3931,748.00
3932,749.00
3933,749.00
3934,747.00
3935,753.00
3936,752.00
3937,754.00
3938,748.00
3939,749.00
3940,749.00
3941,741.00
3942,748.00
3943,740.00
3944,736.00
3945,724.00
3946,736.00
3947,735.00
3948,741.00
3949,740.00
3950,726.00
3951,727.00
3952,727.00
3953,729.00
3954,723.00
3955,723.00
3956,717.00
3957,718.00
3958,703.00
3959,722.00
3960,715.00
3961,710.00
3962,715.00
3963,711.00
3964,712.00
3965,713.00
3966,708.00
3967,708.00
3968,701.00
3969,711.00
3970,705.00
3971,704.00
3972,702.00
3973,700.00
3974,695.00
3975,698.00
3976,697.00
3977,697.00
3978,691.00
3979,694.00
3980,700.00
3981,689.00
3982,694.00
3983,696.00
3984,693.00
3985,687.00
3986,690.00
3987,692.00
3988,683.00
3989,686.00
3990,689.00
3991,687.00
3992,680.00
3993,687.00
3994,683.00
3995,668.00
3996,689.00
3997,683.00
3998,678.00
3999,687.00
4000,687.00
4001,681.00
4002,686.00
4003,680.00
4004,686.00
4005,683.00
4006,691.00
4007,703.00
4008,704.00
4009,718.00
4010,735.00
4011,728.00
4012,753.00
4013,762.00
4014,756.00
4015,762.00
4016,771.00
4017,804.00
4018,794.00
4019,791.00
4020,800.00
4021,801.00
4022,805.00
4023,800.00
4024,798.00
4025,797.00
4026,796.00
4027,799.00
4028,801.00
4029,799.00
4030,806.00
4031,792.00
4032,796.00
4033,795.00
4034,788.00
4035,791.00
4036,787.00
4037,794.00
4038,791.00
4039,789.00
4040,791.00
4041,779.00
4042,779.00
4043,784.00
4044,793.00
4045,781.00
4046,774.00
4047,779.00
4048,778.00
4049,778.00
4050,782.00
4051,782.00
4052,780.00
4053,783.00
4054,777.00
4055,777.00
4056,786.00
4057,786.00
4058,781.00
4059,779.00
4060,787.00
4061,787.00
4062,780.00
4063,787.00
4064,789.00
4065,782.00
4066,787.00
4067,787.00
4068,787.00
4069,780.00
4070,788.00
4071,788.00
4072,781.00
4073,786.00
4074,786.00
4075,778.00
4076,784.00
4077,783.00
4078,780.00
4079,779.00
4080,782.00
4081,784.00
4082,780.00
4083,777.00
4084,778.00
4085,779.00
4086,778.00
4087,780.00
4088,774.00
4089,770.00
4090,774.00
4091,780.00
4092,770.00
4093,769.00
4094,765.00
4095,765.00
4096,763.00
4097,770.00
4098,763.00
4099,767.00
4100,759.00
4101,764.00
4102,761.00
4103,759.00
4104,762.00
4105,763.00
4106,750.00
4107,757.00
4108,757.00
4109,755.00
4110,754.00
4111,754.00
4112,759.00
4113,749.00
4114,749.00
4115,750.00
4116,753.00
4117,750.00
4118,743.00
4119,739.00
4120,756.00
4121,737.00
4122,739.00
4123,734.00
4124,734.00
4125,726.00
4126,725.00
4127,734.00
4128,734.00
4129,726.00
4130,725.00
4131,724.00
4132,717.00
4133,718.00
4134,727.00
4135,721.00
4136,712.00
4137,715.00
4138,713.00
4139,709.00
4140,709.00
4141,704.00
4142,704.00
4143,701.00
4144,709.00
4145,709.00
4146,698.00
4147,702.00
4148,697.00
4149,696.00
4150,696.00
4151,694.00
4152,691.00
4153,692.00
4154,673.00
4155,690.00
4156,688.00
4157,688.00
4158,696.00
4159,684.00
4160,690.00
4161,689.00
4162,680.00
4163,683.00
4164,683.00
4165,689.00
4166,683.00
4167,678.00
4168,679.00
4169,681.00
4170,683.00
4171,691.00
4172,686.00
4173,682.00
4174,675.00
4175,677.00
4176,672.00
4177,672.00
4178,676.00
4179,674.00
4180,676.00
4181,678.00
4182,681.00
4183,676.00
4184,675.00
4185,674.00
4186,675.00
4187,676.00
4188,682.00
4189,682.00
4190,687.00
4191,702.00
4192,712.00
4193,721.00
4194,737.00
4195,751.00
4196,756.00
4197,771.00
4198,773.00
4199,777.00
4200,777.00
4201,790.00
4202,777.00
4203,782.00
4204,782.00
4205,783.00
4206,792.00
4207,790.00
4208,793.00
4209,795.00
4210,790.00
4211,788.00
4212,789.00
4213,786.00
4214,785.00
4215,784.00
4216,769.00
4217,786.00
4218,806.00
4219,790.00
4220,784.00
4221,791.00
4222,786.00
4223,788.00
4224,782.00
4225,782.00
4226,782.00
4227,772.00
4228,780.00
4229,776.00
4230,775.00
4231,777.00
4232,776.00
4233,771.00
4234,773.00
4235,776.00
4236,777.00
4237,778.00
4238,779.00
4239,773.00
4240,775.00
4241,784.00
4242,789.00
4243,787.00
4244,790.00
4245,782.00
4246,777.00
4247,782.00
4248,783.00
4249,786.00
4250,780.00
4251,781.00
4252,776.00
4253,775.00
4254,781.00
4255,777.00
4256,783.00
4257,783.00
4258,778.00
4259,775.00
4260,776.00
4261,781.00
4262,778.00
4263,775.00
4264,772.00
4265,774.00
4266,775.00
4267,766.00
4268,769.00
4269,765.00
4270,764.00
4271,768.00
4272,771.00
4273,764.00
4274,762.00
4275,765.00
4276,764.00
4277,754.00
4278,756.00
4279,775.00
4280,753.00
4281,752.00
4282,750.00
4283,751.00
4284,750.00
4285,753.00
4286,749.00
4287,754.00
4288,743.00
4289,748.00
4290,741.00
4291,739.00
4292,734.00
4293,736.00
4294,732.00
4295,735.00
4296,729.00
4297,727.00
4298,730.00
4299,725.00
4300,727.00
4301,722.00
4302,723.00
4303,726.00
4304,724.00
4305,719.00
4306,712.00
4307,707.00
4308,710.00
4309,707.00
4310,706.00
4311,698.00
4312,704.00
4313,693.00
4314,696.00
4315,698.00
4316,689.00
4317,686.00
4318,682.00
4319,675.00
4320,681.00
4321,681.00
4322,680.00
4323,676.00
4324,672.00
4325,677.00
4326,672.00
4327,674.00
4328,670.00
4329,688.00
4330,668.00
4331,664.00
4332,664.00
4333,663.00
4334,658.00
4335,666.00
4336,658.00
4337,654.00
4338,652.00
4339,656.00
4340,651.00
4341,655.00
4342,652.00
4343,645.00
4344,646.00
4345,648.00
4346,648.00
4347,641.00
4348,642.00
4349,647.00
4350,648.00
4351,642.00
4352,650.00
4353,640.00
4354,639.00
4355,642.00
4356,644.00
4357,645.00
4358,647.00
4359,648.00
4360,654.00
4361,664.00
4362,675.00
4363,672.00
4364,701.00
4365,705.00
4366,721.00
4367,738.00
4368,738.00
4369,754.00
4370,760.00
4371,765.00
4372,777.00
4373,788.00
4374,777.00
4375,778.00
4376,792.00
4377,782.00
4378,781.00
4379,788.00
4380,786.00
4381,785.00
4382,791.00
4383,794.00
4384,789.00
4385,788.00
4386,792.00
4387,789.00
4388,789.00
4389,794.00
4390,784.00
4391,786.00
4392,792.00
4393,784.00
4394,782.00
4395,779.00
4396,776.00
4397,773.00
4398,773.00
4399,778.00
4400,774.00
4401,772.00
4402,771.00
4403,773.00
4404,771.00
4405,769.00
4406,769.00
4407,771.00
4408,762.00
4409,768.00
4410,768.00
4411,767.00
4412,768.00
4413,766.00
4414,768.00
4415,765.00
4416,766.00
4417,767.00
4418,766.00
4419,765.00
4420,764.00
4421,767.00
4422,768.00
4423,767.00
4424,765.00
4425,764.00
4426,766.00
4427,768.00
4428,766.00
4429,764.00
4430,772.00
4431,763.00
4432,759.00
4433,770.00
4434,772.00
4435,762.00
4436,766.00
4437,766.00
4438,761.00
4439,765.00
4440,769.00
4441,762.00
4442,758.00
4443,765.00
4444,758.00
4445,763.00
4446,761.00
4447,762.00
4448,757.00
4449,761.00
4450,757.00
4451,755.00
4452,757.00
4453,757.00
4454,752.00
4455,752.00
4456,754.00
4457,754.00
4458,754.00
4459,755.00
4460,751.00
4461,752.00
4462,748.00
4463,751.00
4464,752.00
4465,745.00
4466,745.00
4467,745.00
4468,743.00
4469,745.00
4470,742.00
4471,742.00
4472,739.00
4473,738.00
4474,743.00
4475,741.00
4476,741.00
4477,741.00
4478,738.00
4479,735.00
4480,736.00
4481,737.00
4482,740.00
4483,736.00
4484,733.00
4485,736.00
4486,732.00
4487,729.00
4488,732.00
4489,731.00
4490,727.00
4491,724.00
4492,725.00
4493,725.00
4494,728.00
4495,716.00
4496,701.00
4497,717.00
4498,720.00
4499,716.00
4500,720.00
4501,727.00
4502,711.00
4503,707.00
4504,711.00
4505,710.00
4506,705.00
4507,702.00
4508,713.00
4509,705.00
4510,703.00
4511,705.00
4512,701.00
4513,696.00
4514,696.00
4515,694.00
4516,695.00
4517,693.00
4518,692.00
4519,691.00
4520,688.00
4521,679.00
4522,688.00
4523,682.00
4524,686.00
4525,683.00
4526,679.00
4527,679.00
4528,683.00
4529,680.00
4530,667.00
4531,678.00
4532,671.00
4533,673.00
4534,673.00
4535,672.00
4536,672.00
4537,665.00
4538,665.00
4539,661.00
4540,659.00
4541,666.00
4542,661.00
4543,659.00
4544,660.00
4545,659.00
4546,656.00
4547,654.00
4548,657.00
4549,657.00
4550,653.00
4551,659.00
4552,665.00
4553,663.00
4554,663.00
4555,667.00
4556,672.00
4557,679.00
4558,692.00
4559,698.00
4560,718.00
4561,728.00
4562,738.00
4563,747.00
4564,755.00
4565,764.00
4566,778.00
4567,774.00
4568,783.00
4569,792.00
4570,783.00
4571,785.00
4572,789.00
4573,785.00
4574,779.00
4575,782.00
4576,785.00
4577,786.00
4578,789.00
4579,782.00
4580,783.00
4581,779.00
4582,782.00
4583,787.00
4584,785.00
4585,778.00
4586,783.00
4587,777.00
4588,777.00
4589,778.00
4590,774.00
4591,779.00
4592,778.00
4593,776.00
4594,778.00
4595,773.00
4596,775.00
4597,771.00
4598,771.00
4599,773.00
4600,785.00
4601,771.00
4602,780.00
4603,783.00
4604,787.00
4605,781.00
4606,788.00
4607,783.00
4608,786.00
4609,786.00
4610,785.00
4611,781.00
4612,785.00
4613,778.00
4614,780.00
4615,779.00
4616,790.00
4617,782.00
4618,775.00
4619,778.00
4620,793.00
4621,781.00
4622,778.00
4623,771.00
4624,774.00
4625,772.00
4626,770.00
4627,764.00
4628,773.00
4629,764.00
4630,762.00
4631,762.00
4632,760.00
4633,767.00
4634,760.00
4635,757.00
4636,757.00
4637,754.00
4638,746.00
4639,752.00
4640,752.00
4641,752.00
4642,748.00
4643,748.00
4644,747.00
4645,747.00
4646,747.00
4647,747.00
4648,742.00
4649,730.00
4650,745.00
4651,741.00
4652,736.00
4653,735.00
4654,744.00
4655,728.00
4656,731.00
4657,734.00
4658,734.00
4659,727.00
4660,730.00
4661,725.00
4662,719.00
4663,727.00
4664,722.00
4665,724.00
4666,715.00
4667,709.00
4668,715.00
4669,721.00
4670,713.00
4671,712.00
4672,712.00
4673,700.00
4674,713.00
4675,708.00
4676,701.00
4677,698.00
4678,701.00
4679,700.00
4680,699.00
4681,697.00
4682,695.00
4683,697.00
4684,693.00
4685,692.00
4686,687.00
4687,690.00
4688,690.00
4689,691.00
4690,689.00
4691,685.00
4692,692.00
4693,679.00
4694,684.00
4695,685.00
4696,677.00
4697,680.00
4698,672.00
4699,677.00
4700,676.00
4701,673.00
4702,672.00
4703,671.00
4704,665.00
4705,676.00
4706,656.00
4707,675.00
4708,668.00
4709,664.00
4710,664.00
4711,660.00
4712,659.00
4713,664.00
4714,661.00
4715,656.00
4716,664.00
4717,653.00
4718,651.00
4719,654.00
4720,652.00
4721,656.00
4722,654.00
4723,652.00
4724,650.00
4725,653.00
4726,650.00
4727,650.00
4728,648.00
4729,644.00
4730,643.00
4731,646.00
4732,644.00
4733,651.00
4734,647.00
4735,644.00
4736,661.00
4737,643.00
4738,645.00
4739,625.00
4740,644.00
4741,648.00
4742,654.00
4743,663.00
4744,666.00
4745,688.00
4746,704.00
4747,715.00
4748,727.00
4749,744.00
4750,761.00
4751,768.00
4752,777.00
4753,785.00
4754,781.00
4755,785.00
4756,784.00
4757,784.00
4758,778.00
4759,784.00
4760,788.00
4761,780.00
4762,781.00
4763,784.00
4764,784.00
4765,781.00
4766,781.00
4767,781.00
4768,773.00
4769,782.00
4770,785.00
4771,777.00
4772,773.00
4773,779.00
4774,783.00
4775,783.00
4776,784.00
4777,773.00
4778,770.00
4779,773.00
4780,776.00
4781,774.00
4782,767.00
4783,772.00
4784,769.00
4785,767.00
4786,769.00
4787,767.00
4788,765.00
4789,765.00
4790,767.00
4791,767.00
4792,765.00
4793,762.00
4794,763.00
4795,765.00
4796,765.00
4797,772.00
4798,768.00
4799,769.00
4800,761.00
4801,765.00
4802,766.00
4803,768.00
4804,765.00
4805,761.00
4806,766.00
4807,772.00
4808,763.00
4809,768.00
4810,772.00
4811,774.00
4812,763.00
4813,767.00
4814,768.00
4815,765.00
4816,765.00
4817,771.00
4818,765.00
4819,758.00
4820,767.00
4821,764.00
4822,765.00
4823,765.00
4824,766.00
4825,767.00
4826,762.00
4827,768.00
4828,763.00
4829,762.00
4830,761.00
4831,767.00
4832,769.00
4833,768.00
4834,754.00
4835,760.00
4836,754.00
4837,754.00
4838,758.00
4839,753.00
4840,744.00
4841,759.00
4842,751.00
4843,749.00
4844,753.00
4845,750.00
4846,741.00
4847,743.00
4848,743.00
4849,745.00
4850,738.00
4851,742.00
4852,738.00
4853,738.00
4854,739.00
4855,749.00
4856,739.00
4857,731.00
4858,712.00
4859,738.00
4860,734.00
4861,728.00
4862,725.00
4863,726.00
4864,722.00
4865,721.00
4866,721.00
4867,715.00
4868,718.00
4869,710.00
4870,711.00
4871,709.00
4872,708.00
4873,708.00
4874,705.00
4875,708.00
4876,701.00
4877,697.00
4878,700.00
4879,702.00
4880,695.00
4881,688.00
4882,707.00
4883,695.00
4884,690.00
4885,693.00
4886,689.00
4887,689.00
4888,688.00
4889,681.00
4890,678.00
4891,679.00
4892,675.00
4893,678.00
4894,677.00
4895,675.00
4896,676.00
4897,677.00
4898,672.00
4899,673.00
4900,673.00
4901,665.00
4902,669.00
4903,672.00
4904,663.00
4905,666.00
4906,666.00
4907,667.00
4908,657.00
4909,665.00
4910,665.00
4911,642.00
4912,663.00
4913,661.00
4914,657.00
4915,655.00
4916,656.00
4917,658.00
4918,660.00
4919,653.00
4920,654.00
4921,654.00
4922,657.00
4923,660.00
4924,657.00
4925,659.00
4926,649.00
4927,654.00
4928,655.00
4929,653.00
4930,653.00
4931,652.00
4932,653.00
4933,658.00
4934,664.00
4935,661.00
4936,671.00
4937,685.00
4938,687.00
4939,695.00
4940,711.00
4941,730.00
4942,745.00
4943,748.00
4944,763.00
4945,760.00
4946,766.00
4947,777.00
4948,778.00
4949,784.00
4950,785.00
4951,775.00
4952,783.00
4953,780.00
4954,779.00
4955,781.00
4956,776.00
4957,778.00
4958,781.00
4959,779.00
4960,777.00
4961,775.00
4962,779.00
4963,770.00
4964,773.00
4965,772.00
4966,771.00
4967,768.00
4968,768.00
4969,768.00
4970,767.00
4971,766.00
4972,769.00
4973,759.00
4974,760.00
4975,763.00
4976,759.00
4977,758.00
4978,759.00
4979,762.00
4980,760.00
4981,769.00
4982,772.00
4983,758.00
4984,761.00
4985,760.00
4986,770.00
4987,769.00
4988,761.00
4989,768.00
4990,765.00
4991,761.00
4992,761.00
4993,768.00
4994,752.00
4995,758.00
4996,760.00
4997,755.00
4998,773.00
4999,762.00
5000,758.00
