ms,resistance
1,516.00
2,511.00
3,511.00
4,511.00
5,511.00
6,511.00
7,512.00
8,511.00
9,511.00
10,512.00
11,512.00
12,511.00
13,512.00
14,510.00
15,512.00
16,509.00
17,512.00
18,514.00
19,511.00
20,511.00
21,513.00
22,513.00
23,510.00
24,513.00
25,514.00
26,514.00
27,509.00
28,513.00
29,511.00
30,511.00
31,511.00
32,511.00
33,514.00
34,511.00
35,513.00
36,511.00
37,512.00
38,511.00
39,510.00
40,512.00
41,510.00
42,511.00
43,510.00
44,514.00
45,513.00
46,513.00
47,512.00
48,513.00
49,512.00
50,511.00
51,514.00
52,514.00
53,514.00
54,509.00
55,513.00
56,511.00
57,514.00
58,511.00
59,512.00
60,513.00
61,511.00
62,512.00
63,510.00
64,511.00
65,510.00
66,510.00
67,511.00
68,511.00
69,511.00
70,511.00
71,514.00
72,513.00
73,513.00
74,512.00
75,514.00
76,511.00
77,510.00
78,511.00
79,511.00
80,511.00
81,511.00
82,511.00
83,511.00
84,511.00
85,511.00
86,511.00
87,511.00
88,511.00
89,511.00
90,511.00
91,511.00
92,511.00
93,511.00
94,511.00
95,511.00
96,512.00
97,512.00
98,511.00
99,511.00
100,511.00
101,510.00
102,510.00
103,510.00
104,510.00
105,511.00
106,511.00
107,511.00
108,511.00
109,511.00
110,511.00
111,511.00
112,511.00
113,511.00
114,511.00
115,510.00
116,511.00
117,511.00
118,511.00
119,510.00
120,511.00
121,510.00
122,510.00
123,510.00
124,511.00
125,510.00
126,510.00
127,510.00
128,511.00
129,510.00
130,510.00
131,511.00
132,511.00
133,510.00
134,510.00
135,511.00
136,510.00
137,510.00
138,511.00
139,510.00
140,510.00
141,510.00
142,510.00
143,510.00
144,510.00
145,511.00
146,511.00
147,510.00
148,511.00
149,510.00
150,510.00
151,510.00
152,510.00
153,510.00
154,510.00
155,511.00
156,510.00
157,510.00
158,511.00
159,510.00
160,510.00
161,510.00
162,510.00
163,510.00
164,510.00
165,510.00
166,510.00
167,510.00
168,510.00
169,510.00
170,510.00
171,510.00
172,508.00
173,509.00
174,510.00
175,511.00
176,510.00
177,510.00
178,510.00
179,510.00
180,510.00
181,508.00
182,510.00
183,510.00
184,510.00
185,510.00
186,510.00
187,510.00
188,510.00
189,510.00
190,510.00
191,510.00
192,510.00
193,510.00
194,510.00
195,510.00
196,510.00
197,510.00
198,510.00
199,510.00
200,510.00
201,510.00
202,510.00
203,510.00
204,510.00
205,510.00
206,510.00
207,510.00
208,510.00
209,510.00
210,510.00
211,510.00
212,510.00
213,510.00
214,509.00
215,510.00
216,510.00
217,510.00
218,510.00
219,510.00
220,510.00
221,510.00
222,509.00
223,510.00
224,510.00
225,510.00
226,510.00
227,510.00
228,510.00
229,510.00
230,510.00
231,510.00
232,510.00
233,509.00
234,509.00
235,510.00
236,509.00
237,510.00
238,510.00
239,509.00
240,509.00
241,510.00
242,510.00
243,509.00
244,510.00
245,509.00
246,510.00
247,510.00
248,510.00
249,509.00
250,509.00
251,509.00
252,509.00
253,509.00
254,509.00
255,509.00
256,509.00
257,510.00
258,510.00
259,509.00
260,510.00
261,509.00
262,509.00
263,509.00
264,509.00
265,510.00
266,509.00
267,509.00
268,509.00
269,509.00
270,509.00
271,509.00
272,509.00
273,510.00
274,509.00
275,510.00
276,509.00
277,510.00
278,510.00
279,509.00
280,509.00
281,509.00
282,509.00
283,509.00
284,509.00
285,509.00
286,509.00
287,509.00
288,509.00
289,510.00
290,509.00
291,510.00
292,510.00
293,509.00
294,509.00
295,509.00
296,509.00
297,509.00
298,509.00
299,510.00
300,509.00
301,509.00
302,509.00
303,509.00
304,509.00
305,509.00
306,509.00
307,509.00
308,509.00
309,509.00
310,509.00
311,509.00
312,509.00
313,509.00
314,509.00
315,509.00
316,510.00
317,509.00
318,509.00
319,509.00
320,509.00
321,509.00
322,509.00
323,509.00
324,509.00
325,509.00
326,509.00
327,509.00
328,509.00
329,509.00
330,509.00
331,509.00
332,509.00
333,509.00
334,509.00
335,509.00
336,509.00
337,509.00
338,509.00
339,509.00
340,509.00
341,509.00
342,509.00
343,509.00
344,509.00
345,509.00
346,509.00
347,509.00
348,509.00
349,509.00
350,508.00
351,509.00
352,509.00
353,509.00
354,509.00
355,509.00
356,510.00
357,509.00
358,509.00
359,509.00
360,509.00
361,509.00
362,509.00
363,509.00
364,509.00
365,509.00
366,509.00
367,510.00
368,509.00
369,509.00
370,509.00
371,509.00
372,510.00
373,510.00
374,510.00
375,510.00
376,510.00
377,510.00
378,510.00
379,510.00
380,510.00
381,510.00
382,510.00
383,510.00
384,509.00
385,510.00
386,510.00
387,509.00
388,509.00
389,510.00
390,510.00
391,510.00
392,510.00
393,510.00
394,510.00
395,510.00
396,509.00
397,510.00
398,510.00
399,509.00
400,509.00
401,509.00
402,509.00
403,509.00
404,509.00
405,509.00
406,510.00
407,509.00
408,509.00
409,509.00
410,510.00
411,509.00
412,509.00
413,510.00
414,509.00
415,509.00
416,509.00
417,509.00
418,509.00
419,510.00
420,510.00
421,510.00
422,509.00
423,509.00
424,509.00
425,509.00
426,509.00
427,509.00
428,509.00
429,510.00
430,509.00
431,509.00
432,509.00
433,509.00
434,510.00
435,509.00
436,509.00
437,509.00
438,509.00
439,509.00
440,509.00
441,509.00
442,508.00
443,509.00
444,509.00
445,509.00
446,509.00
447,509.00
448,509.00
449,510.00
450,509.00
451,509.00
452,509.00
453,509.00
454,509.00
455,509.00
456,509.00
457,509.00
458,509.00
459,509.00
460,509.00
461,509.00
462,509.00
463,509.00
464,509.00
465,509.00
466,509.00
467,509.00
468,509.00
469,509.00
470,509.00
471,509.00
472,508.00
473,508.00
474,509.00
475,509.00
476,509.00
477,508.00
478,509.00
479,509.00
480,509.00
481,508.00
482,509.00
483,509.00
484,509.00
485,509.00
486,508.00
487,509.00
488,509.00
489,509.00
490,509.00
491,508.00
492,509.00
493,508.00
494,509.00
495,508.00
496,508.00
497,508.00
498,509.00
499,509.00
500,509.00
501,509.00
502,509.00
503,509.00
504,508.00
505,509.00
506,509.00
507,509.00
508,508.00
509,509.00
510,508.00
511,507.00
512,509.00
513,509.00
514,509.00
515,509.00
516,508.00
517,509.00
518,508.00
519,508.00
520,508.00
521,508.00
522,508.00
523,508.00
524,509.00
525,508.00
526,509.00
527,508.00
528,509.00
529,508.00
530,508.00
531,508.00
532,508.00
533,508.00
534,508.00
535,508.00
536,508.00
537,508.00
538,508.00
539,509.00
540,508.00
541,508.00
542,509.00
543,508.00
544,508.00
545,508.00
546,508.00
547,508.00
548,508.00
549,509.00
550,508.00
551,508.00
552,508.00
553,508.00
554,508.00
555,508.00
556,508.00
557,508.00
558,508.00
559,507.00
560,508.00
561,508.00
562,509.00
563,508.00
564,508.00
565,508.00
566,508.00
567,509.00
568,508.00
569,508.00
570,508.00
571,509.00
572,508.00
573,508.00
574,508.00
575,508.00
576,508.00
577,507.00
578,508.00
579,509.00
580,508.00
581,508.00
582,508.00
583,508.00
584,508.00
585,508.00
586,508.00
587,508.00
588,508.00
589,508.00
590,508.00
591,508.00
592,508.00
593,508.00
594,508.00
595,508.00
596,508.00
597,508.00
598,508.00
599,508.00
600,508.00
601,508.00
602,508.00
603,508.00
604,508.00
605,508.00
606,508.00
607,508.00
608,508.00
609,508.00
610,508.00
611,508.00
612,508.00
613,508.00
614,508.00
615,508.00
616,508.00
617,508.00
618,508.00
619,508.00
620,508.00
621,508.00
622,508.00
623,508.00
624,508.00
625,508.00
626,508.00
627,508.00
628,508.00
629,508.00
630,507.00
631,508.00
632,508.00
633,508.00
634,508.00
635,505.00
636,508.00
637,507.00
638,508.00
639,508.00
640,508.00
641,508.00
642,508.00
643,505.00
644,508.00
645,508.00
646,508.00
647,508.00
648,508.00
649,508.00
650,508.00
651,508.00
652,508.00
653,507.00
654,508.00
655,508.00
656,508.00
657,508.00
658,508.00
659,508.00
660,507.00
661,508.00
662,508.00
663,508.00
664,508.00
665,508.00
666,508.00
667,508.00
668,508.00
669,508.00
670,508.00
671,508.00
672,508.00
673,508.00
674,508.00
675,508.00
676,508.00
677,508.00
678,508.00
679,508.00
680,506.00
681,507.00
682,508.00
683,508.00
684,509.00
685,508.00
686,508.00
687,508.00
688,508.00
689,508.00
690,508.00
691,508.00
692,508.00
693,508.00
694,506.00
695,508.00
696,508.00
697,508.00
698,507.00
699,508.00
700,508.00
701,508.00
702,508.00
703,507.00
704,507.00
705,508.00
706,508.00
707,508.00
708,508.00
709,508.00
710,508.00
711,508.00
712,508.00
713,508.00
714,508.00
715,508.00
716,508.00
717,508.00
718,508.00
719,508.00
720,508.00
721,508.00
722,508.00
723,508.00
724,508.00
725,507.00
726,508.00
727,507.00
728,508.00
729,506.00
730,507.00
731,507.00
732,507.00
733,507.00
734,507.00
735,507.00
736,507.00
737,507.00
738,507.00
739,507.00
740,507.00
741,507.00
742,507.00
743,507.00
744,507.00
745,507.00
746,507.00
747,507.00
748,507.00
749,507.00
750,507.00
751,507.00
752,507.00
753,507.00
754,507.00
755,507.00
756,507.00
757,507.00
758,507.00
759,507.00
760,505.00
761,507.00
762,507.00
763,507.00
764,507.00
765,507.00
766,507.00
767,507.00
768,507.00
769,507.00
770,507.00
771,507.00
772,507.00
773,507.00
774,507.00
775,507.00
776,507.00
777,507.00
778,507.00
779,507.00
780,507.00
781,507.00
782,507.00
783,506.00
784,507.00
785,507.00
786,507.00
787,507.00
788,507.00
789,507.00
790,507.00
791,507.00
792,507.00
793,507.00
794,507.00
795,507.00
796,507.00
797,507.00
798,507.00
799,507.00
800,507.00
801,507.00
802,507.00
803,507.00
804,507.00
805,507.00
806,507.00
807,507.00
808,507.00
809,507.00
810,504.00
811,507.00
812,507.00
813,507.00
814,506.00
815,507.00
816,507.00
817,507.00
818,507.00
819,507.00
820,507.00
821,507.00
822,507.00
823,507.00
824,507.00
825,507.00
826,507.00
827,507.00
828,506.00
829,507.00
830,507.00
831,507.00
832,507.00
833,507.00
834,507.00
835,505.00
836,507.00
837,507.00
838,507.00
839,507.00
840,507.00
841,507.00
842,507.00
843,507.00
844,507.00
845,507.00
846,506.00
847,507.00
848,506.00
849,507.00
850,507.00
851,507.00
852,503.00
853,507.00
854,507.00
855,507.00
856,507.00
857,507.00
858,507.00
859,506.00
860,507.00
861,506.00
862,506.00
863,507.00
864,506.00
865,506.00
866,506.00
867,507.00
868,506.00
869,507.00
870,507.00
871,506.00
872,507.00
873,506.00
874,506.00
875,506.00
876,507.00
877,506.00
878,506.00
879,506.00
880,506.00
881,506.00
882,506.00
883,506.00
884,506.00
885,506.00
886,505.00
887,506.00
888,506.00
889,506.00
890,506.00
891,506.00
892,506.00
893,506.00
894,506.00
895,506.00
896,506.00
897,506.00
898,506.00
899,507.00
900,507.00
901,507.00
902,506.00
903,506.00
904,506.00
905,506.00
906,506.00
907,506.00
908,507.00
909,507.00
910,506.00
911,506.00
912,503.00
913,506.00
914,506.00
915,506.00
916,507.00
917,507.00
918,507.00
919,506.00
920,506.00
921,506.00
922,506.00
923,506.00
924,506.00
925,506.00
926,506.00
927,506.00
928,507.00
929,507.00
930,507.00
931,506.00
932,507.00
933,507.00
934,507.00
935,507.00
936,507.00
937,506.00
938,507.00
939,506.00
940,507.00
941,506.00
942,507.00
943,508.00
944,509.00
945,506.00
946,509.00
947,509.00
948,509.00
949,509.00
950,510.00
951,511.00
952,512.00
953,512.00
954,514.00
955,514.00
956,514.00
957,514.00
958,514.00
959,514.00
960,514.00
961,514.00
962,515.00
963,516.00
964,516.00
965,517.00
966,517.00
967,517.00
968,517.00
969,517.00
970,517.00
971,518.00
972,517.00
973,517.00
974,517.00
975,517.00
976,516.00
977,516.00
978,516.00
979,516.00
980,517.00
981,517.00
982,517.00
983,519.00
984,519.00
985,520.00
986,520.00
987,520.00
988,520.00
989,521.00
990,521.00
991,522.00
992,522.00
993,524.00
994,525.00
995,528.00
996,532.00
997,536.00
998,540.00
999,545.00
1000,552.00
1001,560.00
1002,565.00
1003,573.00
1004,586.00
1005,601.00
1006,619.00
1007,635.00
1008,652.00
1009,666.00
1010,677.00
1011,686.00
1012,695.00
1013,703.00
1014,707.00
1015,713.00
1016,729.00
1017,736.00
1018,739.00
1019,739.00
1020,743.00
1021,747.00
1022,750.00
1023,751.00
1024,754.00
1025,763.00
1026,771.00
1027,779.00
1028,785.00
1029,791.00
1030,791.00
1031,794.00
1032,796.00
1033,796.00
1034,797.00
1035,799.00
1036,799.00
1037,797.00
1038,797.00
1039,794.00
1040,791.00
1041,793.00
1042,797.00
1043,798.00
1044,799.00
1045,800.00
1046,801.00
1047,810.00
1048,811.00
1049,813.00
1050,809.00
1051,806.00
1052,807.00
1053,803.00
1054,802.00
1055,803.00
1056,800.00
1057,800.00
1058,800.00
1059,799.00
1060,798.00
1061,799.00
1062,800.00
1063,799.00
1064,799.00
1065,799.00
1066,795.00
1067,796.00
1068,797.00
1069,796.00
1070,795.00
1071,794.00
1072,795.00
1073,793.00
1074,789.00
1075,797.00
1076,797.00
1077,797.00
1078,796.00
1079,795.00
1080,794.00
1081,794.00
1082,787.00
1083,791.00
1084,791.00
1085,791.00
1086,790.00
1087,789.00
1088,790.00
1089,787.00
1090,784.00
1091,789.00
1092,788.00
1093,786.00
1094,786.00
1095,788.00
1096,784.00
1097,784.00
1098,786.00
1099,786.00
1100,787.00
1101,789.00
1102,791.00
1103,793.00
1104,795.00
1105,794.00
1106,796.00
1107,794.00
1108,792.00
1109,787.00
1110,785.00
1111,782.00
1112,779.00
1113,782.00
1114,776.00
1115,774.00
1116,773.00
1117,774.00
1118,775.00
1119,777.00
1120,781.00
1121,781.00
1122,779.00
1123,775.00
1124,765.00
1125,751.00
1126,736.00
1127,721.00
1128,704.00
1129,689.00
1130,676.00
1131,664.00
1132,656.00
1133,651.00
1134,647.00
1135,644.00
1136,642.00
1137,641.00
1138,639.00
1139,638.00
1140,637.00
1141,629.00
1142,634.00
1143,633.00
1144,633.00
1145,631.00
1146,632.00
1147,630.00
1148,630.00
1149,629.00
1150,627.00
1151,626.00
1152,625.00
1153,625.00
1154,622.00
1155,622.00
1156,621.00
1157,619.00
1158,617.00
1159,617.00
1160,614.00
1161,614.00
1162,613.00
1163,614.00
1164,612.00
1165,611.00
1166,609.00
1167,608.00
1168,609.00
1169,609.00
1170,607.00
1171,605.00
1172,605.00
1173,604.00
1174,603.00
1175,592.00
1176,600.00
1177,598.00
1178,597.00
1179,595.00
1180,593.00
1181,592.00
1182,591.00
1183,586.00
1184,589.00
1185,588.00
1186,587.00
1187,585.00
1188,586.00
1189,586.00
1190,584.00
1191,580.00
1192,584.00
1193,586.00
1194,583.00
1195,583.00
1196,583.00
1197,584.00
1198,587.00
1199,589.00
1200,593.00
1201,600.00
1202,606.00
1203,611.00
1204,616.00
1205,616.00
1206,617.00
1207,626.00
1208,634.00
1209,640.00
1210,646.00
1211,653.00
1212,661.00
1213,669.00
1214,676.00
1215,685.00
1216,693.00
1217,702.00
1218,711.00
1219,717.00
1220,722.00
1221,726.00
1222,730.00
1223,733.00
1224,738.00
1225,741.00
1226,745.00
1227,748.00
1228,753.00
1229,758.00
1230,758.00
1231,765.00
1232,767.00
1233,770.00
1234,773.00
1235,775.00
1236,776.00
1237,780.00
1238,782.00
1239,785.00
1240,788.00
1241,788.00
1242,789.00
1243,789.00
1244,790.00
1245,789.00
1246,796.00
1247,798.00
1248,800.00
1249,801.00
1250,802.00
1251,799.00
1252,801.00
1253,801.00
1254,802.00
1255,802.00
1256,804.00
1257,804.00
1258,803.00
1259,803.00
1260,802.00
1261,799.00
1262,798.00
1263,799.00
1264,795.00
1265,799.00
1266,799.00
1267,797.00
1268,798.00
1269,799.00
1270,798.00
1271,797.00
1272,798.00
1273,797.00
1274,796.00
1275,798.00
1276,797.00
1277,796.00
1278,795.00
1279,794.00
1280,795.00
1281,794.00
1282,793.00
1283,793.00
1284,792.00
1285,791.00
1286,790.00
1287,790.00
1288,790.00
1289,788.00
1290,788.00
1291,788.00
1292,787.00
1293,787.00
1294,787.00
1295,785.00
1296,785.00
1297,785.00
1298,785.00
1299,784.00
1300,783.00
1301,783.00
1302,782.00
1303,781.00
1304,782.00
1305,782.00
1306,786.00
1307,783.00
1308,784.00
1309,783.00
1310,784.00
1311,785.00
1312,785.00
1313,784.00
1314,787.00
1315,788.00
1316,790.00
1317,791.00
1318,791.00
1319,791.00
1320,791.00
1321,792.00
1322,793.00
1323,795.00
1324,797.00
1325,795.00
1326,798.00
1327,798.00
1328,797.00
1329,798.00
1330,797.00
1331,799.00
1332,799.00
1333,799.00
1334,799.00
1335,798.00
1336,800.00
1337,800.00
1338,798.00
1339,799.00
1340,798.00
1341,797.00
1342,796.00
1343,795.00
1344,793.00
1345,791.00
1346,789.00
1347,785.00
1348,781.00
1349,780.00
1350,776.00
1351,773.00
1352,771.00
1353,768.00
1354,765.00
1355,761.00
1356,756.00
1357,752.00
1358,748.00
1359,736.00
1360,737.00
1361,734.00
1362,728.00
1363,723.00
1364,719.00
1365,714.00
1366,709.00
1367,705.00
1368,702.00
1369,693.00
1370,688.00
1371,681.00
1372,674.00
1373,669.00
1374,664.00
1375,657.00
1376,652.00
1377,648.00
1378,644.00
1379,642.00
1380,637.00
1381,634.00
1382,632.00
1383,631.00
1384,628.00
1385,626.00
1386,625.00
1387,625.00
1388,623.00
1389,622.00
1390,622.00
1391,620.00
1392,620.00
1393,620.00
1394,619.00
1395,619.00
1396,618.00
1397,619.00
1398,617.00
1399,617.00
1400,616.00
1401,616.00
1402,616.00
1403,615.00
1404,614.00
1405,617.00
1406,614.00
1407,613.00
1408,614.00
1409,611.00
1410,613.00
1411,613.00
1412,613.00
1413,611.00
1414,612.00
1415,612.00
1416,612.00
1417,606.00
1418,612.00
1419,611.00
1420,612.00
1421,613.00
1422,612.00
1423,612.00
1424,614.00
1425,614.00
1426,616.00
1427,616.00
1428,617.00
1429,618.00
1430,619.00
1431,621.00
1432,622.00
1433,625.00
1434,628.00
1435,632.00
1436,638.00
1437,643.00
1438,649.00
1439,654.00
1440,660.00
1441,668.00
1442,674.00
1443,680.00
1444,688.00
1445,689.00
1446,697.00
1447,703.00
1448,707.00
1449,715.00
1450,723.00
1451,731.00
1452,737.00
1453,742.00
1454,747.00
1455,752.00
1456,756.00
1457,762.00
1458,770.00
1459,778.00
1460,779.00
1461,783.00
1462,786.00
1463,789.00
1464,788.00
1465,788.00
1466,790.00
1467,789.00
1468,789.00
1469,789.00
1470,787.00
1471,790.00
1472,791.00
1473,792.00
1474,793.00
1475,792.00
1476,791.00
1477,792.00
1478,792.00
1479,793.00
1480,794.00
1481,795.00
1482,794.00
1483,793.00
1484,791.00
1485,789.00
1486,790.00
1487,790.00
1488,790.00
1489,789.00
1490,790.00
1491,788.00
1492,786.00
1493,787.00
1494,785.00
1495,783.00
1496,784.00
1497,783.00
1498,783.00
1499,784.00
1500,786.00
1501,786.00
1502,785.00
1503,785.00
1504,786.00
1505,786.00
1506,789.00
1507,789.00
1508,789.00
1509,788.00
1510,787.00
1511,786.00
1512,785.00
1513,784.00
1514,782.00
1515,782.00
1516,781.00
1517,781.00
1518,781.00
1519,779.00
1520,779.00
1521,779.00
1522,779.00
1523,776.00
1524,778.00
1525,778.00
1526,780.00
1527,778.00
1528,778.00
1529,777.00
1530,777.00
1531,777.00
1532,776.00
1533,776.00
1534,776.00
1535,774.00
1536,774.00
1537,774.00
1538,772.00
1539,773.00
1540,773.00
1541,772.00
1542,772.00
1543,771.00
1544,770.00
1545,770.00
1546,771.00
1547,769.00
1548,770.00
1549,772.00
1550,770.00
1551,771.00
1552,773.00
1553,774.00
1554,775.00
1555,776.00
1556,775.00
1557,774.00
1558,779.00
1559,775.00
1560,775.00
1561,777.00
1562,778.00
1563,778.00
1564,778.00
1565,778.00
1566,776.00
1567,774.00
1568,773.00
1569,771.00
1570,769.00
1571,768.00
1572,759.00
1573,767.00
1574,762.00
1575,759.00
1576,757.00
1577,757.00
1578,754.00
1579,754.00
1580,746.00
1581,748.00
1582,748.00
1583,746.00
1584,743.00
1585,739.00
1586,738.00
1587,734.00
1588,731.00
1589,728.00
1590,722.00
1591,717.00
1592,714.00
1593,709.00
1594,705.00
1595,701.00
1596,697.00
1597,692.00
1598,688.00
1599,682.00
1600,676.00
1601,667.00
1602,667.00
1603,661.00
1604,656.00
1605,651.00
1606,645.00
1607,640.00
1608,638.00
1609,632.00
1610,632.00
1611,627.00
1612,624.00
1613,621.00
1614,620.00
1615,619.00
1616,618.00
1617,616.00
1618,615.00
1619,615.00
1620,613.00
1621,612.00
1622,610.00
1623,609.00
1624,609.00
1625,608.00
1626,607.00
1627,607.00
1628,606.00
1629,607.00
1630,605.00
1631,605.00
1632,605.00
1633,604.00
1634,603.00
1635,604.00
1636,603.00
1637,603.00
1638,602.00
1639,602.00
1640,602.00
1641,602.00
1642,601.00
1643,601.00
1644,601.00
1645,601.00
1646,600.00
1647,601.00
1648,601.00
1649,599.00
1650,599.00
1651,601.00
1652,600.00
1653,600.00
1654,600.00
1655,600.00
1656,601.00
1657,602.00
1658,602.00
1659,604.00
1660,604.00
1661,605.00
1662,608.00
1663,609.00
1664,611.00
1665,611.00
1666,612.00
1667,616.00
1668,618.00
1669,625.00
1670,631.00
1671,634.00
1672,640.00
1673,644.00
1674,650.00
1675,658.00
1676,659.00
1677,671.00
1678,680.00
1679,688.00
1680,697.00
1681,707.00
1682,717.00
1683,724.00
1684,731.00
1685,736.00
1686,740.00
1687,744.00
1688,748.00
1689,748.00
1690,753.00
1691,752.00
1692,753.00
1693,759.00
1694,762.00
1695,767.00
1696,769.00
1697,771.00
1698,773.00
1699,776.00
1700,777.00
1701,779.00
1702,782.00
1703,784.00
1704,779.00
1705,784.00
1706,787.00
1707,786.00
1708,785.00
1709,785.00
1710,786.00
1711,785.00
1712,782.00
1713,784.00
1714,783.00
1715,781.00
1716,779.00
1717,778.00
1718,786.00
1719,781.00
1720,782.00
1721,783.00
1722,784.00
1723,783.00
1724,783.00
1725,780.00
1726,780.00
1727,778.00
1728,777.00
1729,777.00
1730,776.00
1731,778.00
1732,782.00
1733,781.00
1734,779.00
1735,778.00
1736,777.00
1737,776.00
1738,775.00
1739,775.00
1740,775.00
1741,774.00
1742,774.00
1743,774.00
1744,773.00
1745,772.00
1746,772.00
1747,772.00
1748,772.00
1749,771.00
1750,770.00
1751,773.00
1752,771.00
1753,770.00
1754,770.00
1755,770.00
1756,770.00
1757,770.00
1758,767.00
1759,769.00
1760,770.00
1761,768.00
1762,768.00
1763,771.00
1764,768.00
1765,767.00
1766,767.00
1767,766.00
1768,765.00
1769,765.00
1770,765.00
1771,765.00
1772,766.00
1773,764.00
1774,764.00
1775,764.00
1776,763.00
1777,759.00
1778,762.00
1779,761.00
1780,760.00
1781,763.00
1782,763.00
1783,765.00
1784,766.00
1785,765.00
1786,766.00
1787,766.00
1788,768.00
1789,767.00
1790,768.00
1791,766.00
1792,767.00
1793,765.00
1794,764.00
1795,763.00
1796,762.00
1797,760.00
1798,759.00
1799,757.00
1800,754.00
1801,752.00
1802,750.00
1803,748.00
1804,746.00
1805,742.00
1806,738.00
1807,735.00
1808,730.00
1809,725.00
1810,720.00
1811,717.00
1812,713.00
1813,707.00
1814,703.00
1815,696.00
1816,691.00
1817,688.00
1818,683.00
1819,678.00
1820,676.00
1821,672.00
1822,667.00
1823,666.00
1824,660.00
1825,657.00
1826,654.00
1827,647.00
1828,649.00
1829,646.00
1830,644.00
1831,642.00
1832,640.00
1833,638.00
1834,635.00
1835,633.00
1836,631.00
1837,628.00
1838,625.00
1839,623.00
1840,619.00
1841,618.00
1842,615.00
1843,613.00
1844,613.00
1845,612.00
1846,610.00
1847,610.00
1848,609.00
1849,608.00
1850,608.00
1851,607.00
1852,607.00
1853,606.00
1854,606.00
1855,605.00
1856,605.00
1857,604.00
1858,604.00
1859,604.00
1860,603.00
1861,603.00
1862,602.00
1863,602.00
1864,602.00
1865,602.00
1866,602.00
1867,603.00
1868,602.00
1869,601.00
1870,600.00
1871,602.00
1872,601.00
1873,601.00
1874,602.00
1875,599.00
1876,602.00
1877,604.00
1878,605.00
1879,608.00
1880,612.00
1881,614.00
1882,618.00
1883,624.00
1884,633.00
1885,637.00
1886,645.00
1887,653.00
1888,660.00
1889,668.00
1890,675.00
1891,684.00
1892,690.00
1893,694.00
1894,699.00
1895,704.00
1896,712.00
1897,715.00
1898,721.00
1899,724.00
1900,729.00
1901,732.00
1902,736.00
1903,740.00
1904,747.00
1905,752.00
1906,750.00
1907,757.00
1908,759.00
1909,761.00
1910,765.00
1911,765.00
1912,766.00
1913,767.00
1914,767.00
1915,766.00
1916,764.00
1917,765.00
1918,767.00
1919,766.00
1920,762.00
1921,764.00
1922,765.00
1923,765.00
1924,767.00
1925,765.00
1926,768.00
1927,766.00
1928,773.00
1929,769.00
1930,771.00
1931,771.00
1932,770.00
1933,771.00
1934,769.00
1935,769.00
1936,768.00
1937,768.00
1938,765.00
1939,765.00
1940,765.00
1941,763.00
1942,762.00
1943,763.00
1944,762.00
1945,761.00
1946,762.00
1947,760.00
1948,761.00
1949,760.00
1950,760.00
1951,760.00
1952,760.00
1953,759.00
1954,760.00
1955,760.00
1956,759.00
1957,759.00
1958,759.00
1959,758.00
1960,755.00
1961,758.00
1962,757.00
1963,758.00
1964,758.00
1965,757.00
1966,757.00
1967,757.00
1968,756.00
1969,757.00
1970,757.00
1971,755.00
1972,755.00
1973,755.00
1974,754.00
1975,754.00
1976,755.00
1977,754.00
1978,752.00
1979,752.00
1980,752.00
1981,752.00
1982,749.00
1983,748.00
1984,748.00
1985,747.00
1986,745.00
1987,746.00
1988,744.00
1989,744.00
1990,745.00
1991,745.00
1992,743.00
1993,743.00
1994,742.00
1995,743.00
1996,741.00
1997,740.00
1998,738.00
1999,737.00
2000,736.00
2001,737.00
2002,735.00
2003,733.00
2004,733.00
2005,731.00
2006,728.00
2007,726.00
2008,726.00
2009,725.00
2010,723.00
2011,721.00
2012,718.00
2013,715.00
2014,712.00
2015,709.00
2016,706.00
2017,703.00
2018,701.00
2019,698.00
2020,694.00
2021,690.00
2022,686.00
2023,681.00
2024,677.00
2025,673.00
2026,669.00
2027,664.00
2028,660.00
2029,656.00
2030,652.00
2031,648.00
2032,644.00
2033,640.00
2034,636.00
2035,633.00
2036,627.00
2037,623.00
2038,620.00
2039,616.00
2040,614.00
2041,612.00
2042,611.00
2043,610.00
2044,614.00
2045,607.00
2046,608.00
2047,606.00
2048,604.00
2049,605.00
2050,603.00
2051,602.00
2052,602.00
2053,601.00
2054,601.00
2055,601.00
2056,600.00
2057,600.00
2058,601.00
2059,599.00
2060,598.00
2061,598.00
2062,598.00
2063,597.00
2064,597.00
2065,597.00
2066,596.00
2067,597.00
2068,596.00
2069,596.00
2070,596.00
2071,596.00
2072,595.00
2073,595.00
2074,595.00
2075,596.00
2076,595.00
2077,595.00
2078,595.00
2079,596.00
2080,595.00
2081,596.00
2082,598.00
2083,599.00
2084,602.00
2085,605.00
2086,607.00
2087,612.00
2088,613.00
2089,615.00
2090,618.00
2091,622.00
2092,622.00
2093,625.00
2094,627.00
2095,629.00
2096,633.00
2097,635.00
2098,635.00
2099,639.00
2100,642.00
2101,643.00
2102,646.00
2103,647.00
2104,653.00
2105,655.00
2106,658.00
2107,663.00
2108,667.00
2109,673.00
2110,677.00
2111,682.00
2112,687.00
2113,691.00
2114,692.00
2115,692.00
2116,697.00
2117,696.00
2118,698.00
2119,702.00
2120,706.00
2121,709.00
2122,711.00
2123,713.00
2124,716.00
2125,720.00
2126,731.00
2127,734.00
2128,738.00
2129,748.00
2130,746.00
2131,749.00
2132,753.00
2133,757.00
2134,757.00
2135,757.00
2136,760.00
2137,760.00
2138,759.00
2139,763.00
2140,762.00
2141,763.00
2142,764.00
2143,763.00
2144,760.00
2145,759.00
2146,759.00
2147,758.00
2148,760.00
2149,763.00
2150,763.00
2151,765.00
2152,764.00
2153,764.00
2154,767.00
2155,766.00
2156,768.00
2157,769.00
2158,769.00
2159,769.00
2160,768.00
2161,766.00
2162,768.00
2163,765.00
2164,766.00
2165,767.00
2166,767.00
2167,764.00
2168,765.00
2169,762.00
2170,763.00
2171,764.00
2172,763.00
2173,762.00
2174,762.00
2175,761.00
2176,763.00
2177,763.00
2178,762.00
2179,762.00
2180,762.00
2181,761.00
2182,760.00
2183,761.00
2184,760.00
2185,759.00
2186,759.00
2187,758.00
2188,758.00
2189,758.00
2190,758.00
2191,761.00
2192,752.00
2193,756.00
2194,756.00
2195,755.00
2196,754.00
2197,754.00
2198,753.00
2199,752.00
2200,750.00
2201,749.00
2202,746.00
2203,748.00
2204,746.00
2205,745.00
2206,745.00
2207,746.00
2208,745.00
2209,746.00
2210,746.00
2211,746.00
2212,746.00
2213,746.00
2214,745.00
2215,746.00
2216,746.00
2217,746.00
2218,747.00
2219,746.00
2220,748.00
2221,746.00
2222,744.00
2223,744.00
2224,742.00
2225,743.00
2226,742.00
2227,741.00
2228,740.00
2229,740.00
2230,740.00
2231,739.00
2232,740.00
2233,738.00
2234,736.00
2235,733.00
2236,729.00
2237,726.00
2238,721.00
2239,718.00
2240,714.00
2241,710.00
2242,705.00
2243,700.00
2244,695.00
2245,688.00
2246,684.00
2247,679.00
2248,674.00
2249,670.00
2250,665.00
2251,660.00
2252,656.00
2253,650.00
2254,647.00
2255,645.00
2256,642.00
2257,640.00
2258,639.00
2259,636.00
2260,635.00
2261,633.00
2262,629.00
2263,631.00
2264,630.00
2265,627.00
2266,628.00
2267,626.00
2268,624.00
2269,623.00
2270,621.00
2271,619.00
2272,620.00
2273,617.00
2274,616.00
2275,616.00
2276,614.00
2277,614.00
2278,614.00
2279,613.00
2280,612.00
2281,612.00
2282,611.00
2283,611.00
2284,611.00
2285,610.00
2286,610.00
2287,610.00
2288,609.00
2289,610.00
2290,610.00
2291,609.00
2292,609.00
2293,604.00
2294,609.00
2295,609.00
2296,610.00
2297,610.00
2298,611.00
2299,610.00
2300,611.00
2301,613.00
2302,613.00
2303,618.00
2304,618.00
2305,623.00
2306,626.00
2307,628.00
2308,630.00
2309,633.00
2310,637.00
2311,641.00
2312,646.00
2313,649.00
2314,654.00
2315,659.00
2316,664.00
2317,669.00
2318,674.00
2319,678.00
2320,683.00
2321,688.00
2322,691.00
2323,697.00
2324,701.00
2325,705.00
2326,709.00
2327,713.00
2328,716.00
2329,719.00
2330,722.00
2331,724.00
2332,728.00
2333,730.00
2334,733.00
2335,734.00
2336,734.00
2337,737.00
2338,740.00
2339,740.00
2340,741.00
2341,743.00
2342,742.00
2343,744.00
2344,746.00
2345,747.00
2346,750.00
2347,750.00
2348,752.00
2349,755.00
2350,755.00
2351,758.00
2352,758.00
2353,759.00
2354,762.00
2355,763.00
2356,763.00
2357,765.00
2358,764.00
2359,763.00
2360,764.00
2361,765.00
2362,765.00
2363,767.00
2364,767.00
2365,766.00
2366,766.00
2367,765.00
2368,766.00
2369,767.00
2370,765.00
2371,763.00
2372,768.00
2373,765.00
2374,766.00
2375,765.00
2376,764.00
2377,763.00
2378,765.00
2379,765.00
2380,768.00
2381,766.00
2382,766.00
2383,766.00
2384,765.00
2385,765.00
2386,761.00
2387,762.00
2388,763.00
2389,766.00
2390,762.00
2391,762.00
2392,761.00
2393,761.00
2394,761.00
2395,759.00
2396,761.00
2397,759.00
2398,758.00
2399,758.00
2400,759.00
2401,757.00
2402,756.00
2403,755.00
2404,755.00
2405,755.00
2406,756.00
2407,751.00
2408,752.00
2409,752.00
2410,751.00
2411,752.00
2412,752.00
2413,753.00
2414,753.00
2415,751.00
2416,752.00
2417,752.00
2418,753.00
2419,751.00
2420,753.00
2421,751.00
2422,752.00
2423,752.00
2424,752.00
2425,753.00
2426,752.00
2427,751.00
2428,750.00
2429,750.00
2430,749.00
2431,749.00
2432,748.00
2433,747.00
2434,744.00
2435,740.00
2436,739.00
2437,736.00
2438,735.00
2439,734.00
2440,731.00
2441,729.00
2442,728.00
2443,724.00
2444,722.00
2445,718.00
2446,714.00
2447,710.00
2448,705.00
2449,702.00
2450,696.00
2451,691.00
2452,686.00
2453,682.00
2454,675.00
2455,671.00
2456,665.00
2457,658.00
2458,654.00
2459,650.00
2460,645.00
2461,642.00
2462,638.00
2463,633.00
2464,630.00
2465,628.00
2466,624.00
2467,622.00
2468,619.00
2469,618.00
2470,618.00
2471,616.00
2472,615.00
2473,615.00
2474,614.00
2475,614.00
2476,612.00
2477,612.00
2478,612.00
2479,611.00
2480,603.00
2481,610.00
2482,610.00
2483,610.00
2484,610.00
2485,609.00
2486,609.00
2487,609.00
2488,608.00
2489,609.00
2490,609.00
2491,608.00
2492,608.00
2493,608.00
2494,608.00
2495,609.00
2496,608.00
2497,609.00
2498,608.00
2499,609.00
2500,609.00
2501,609.00
2502,609.00
2503,610.00
2504,610.00
2505,608.00
2506,611.00
2507,611.00
2508,611.00
2509,613.00
2510,613.00
2511,617.00
2512,622.00
2513,627.00
2514,635.00
2515,643.00
2516,650.00
2517,661.00
2518,666.00
2519,672.00
2520,678.00
2521,682.00
2522,687.00
2523,694.00
2524,699.00
2525,706.00
2526,710.00
2527,713.00
2528,718.00
2529,720.00
2530,723.00
2531,727.00
2532,728.00
2533,732.00
2534,739.00
2535,740.00
2536,743.00
2537,745.00
2538,747.00
2539,747.00
2540,752.00
2541,748.00
2542,750.00
2543,753.00
2544,757.00
2545,761.00
2546,763.00
2547,764.00
2548,767.00
2549,768.00
2550,767.00
2551,769.00
2552,769.00
2553,769.00
2554,773.00
2555,773.00
2556,774.00
2557,775.00
2558,774.00
2559,773.00
2560,771.00
2561,770.00
2562,770.00
2563,768.00
2564,769.00
2565,771.00
2566,771.00
2567,771.00
2568,772.00
2569,773.00
2570,775.00
2571,776.00
2572,777.00
2573,777.00
2574,778.00
2575,777.00
2576,784.00
2577,776.00
2578,776.00
2579,781.00
2580,774.00
2581,773.00
2582,772.00
2583,772.00
2584,772.00
2585,770.00
2586,770.00
2587,770.00
2588,768.00
2589,769.00
2590,769.00
2591,769.00
2592,769.00
2593,768.00
2594,768.00
2595,768.00
2596,768.00
2597,767.00
2598,766.00
2599,766.00
2600,766.00
2601,768.00
2602,765.00
2603,766.00
2604,757.00
2605,765.00
2606,764.00
2607,763.00
2608,762.00
2609,763.00
2610,761.00
2611,763.00
2612,761.00
2613,762.00
2614,761.00
2615,759.00
2616,760.00
2617,761.00
2618,760.00
2619,760.00
2620,760.00
2621,761.00
2622,763.00
2623,764.00
2624,763.00
2625,768.00
2626,768.00
2627,769.00
2628,771.00
2629,770.00
2630,768.00
2631,769.00
2632,768.00
2633,768.00
2634,768.00
2635,766.00
2636,765.00
2637,763.00
2638,760.00
2639,759.00
2640,756.00
2641,755.00
2642,755.00
2643,754.00
2644,754.00
2645,751.00
2646,750.00
2647,748.00
2648,745.00
2649,742.00
2650,740.00
2651,738.00
2652,734.00
2653,733.00
2654,727.00
2655,723.00
2656,720.00
2657,716.00
2658,713.00
2659,709.00
2660,704.00
2661,702.00
2662,697.00
2663,695.00
2664,694.00
2665,690.00
2666,688.00
2667,687.00
2668,686.00
2669,685.00
2670,685.00
2671,683.00
2672,679.00
2673,681.00
2674,679.00
2675,681.00
2676,679.00
2677,679.00
2678,679.00
2679,676.00
2680,677.00
2681,677.00
2682,676.00
2683,675.00
2684,675.00
2685,674.00
2686,677.00
2687,673.00
2688,674.00
2689,674.00
2690,672.00
2691,672.00
2692,671.00
2693,670.00
2694,671.00
2695,669.00
2696,670.00
2697,670.00
2698,668.00
2699,668.00
2700,669.00
2701,667.00
2702,667.00
2703,667.00
2704,667.00
2705,667.00
2706,666.00
2707,666.00
2708,666.00
2709,665.00
2710,666.00
2711,665.00
2712,664.00
2713,665.00
2714,665.00
2715,665.00
2716,664.00
2717,663.00
2718,664.00
2719,664.00
2720,663.00
2721,664.00
2722,664.00
2723,664.00
2724,665.00
2725,667.00
2726,671.00
2727,672.00
2728,681.00
2729,684.00
2730,688.00
2731,692.00
2732,697.00
2733,700.00
2734,704.00
2735,709.00
2736,712.00
2737,716.00
2738,720.00
2739,725.00
2740,729.00
2741,733.00
2742,738.00
2743,740.00
2744,746.00
2745,749.00
2746,753.00
2747,755.00
2748,758.00
2749,760.00
2750,761.00
2751,764.00
2752,765.00
2753,767.00
2754,769.00
2755,769.00
2756,773.00
2757,768.00
2758,764.00
2759,769.00
2760,769.00
2761,769.00
2762,770.00
2763,770.00
2764,770.00
2765,770.00
2766,768.00
2767,771.00
2768,772.00
2769,773.00
2770,776.00
2771,776.00
2772,777.00
2773,776.00
2774,774.00
2775,775.00
2776,775.00
2777,775.00
2778,775.00
2779,775.00
2780,774.00
2781,775.00
2782,774.00
2783,773.00
2784,774.00
2785,773.00
2786,772.00
2787,772.00
2788,772.00
2789,772.00
2790,771.00
2791,771.00
2792,772.00
2793,770.00
2794,769.00
2795,769.00
2796,767.00
2797,768.00
2798,768.00
2799,767.00
2800,767.00
2801,767.00
2802,766.00
2803,767.00
2804,766.00
2805,765.00
2806,765.00
2807,764.00
2808,765.00
2809,765.00
2810,764.00
2811,764.00
2812,764.00
2813,764.00
2814,762.00
2815,763.00
2816,762.00
2817,768.00
2818,760.00
2819,761.00
2820,759.00
2821,759.00
2822,760.00
2823,758.00
2824,759.00
2825,759.00
2826,760.00
2827,761.00
2828,761.00
2829,762.00
2830,765.00
2831,765.00
2832,768.00
2833,768.00
2834,770.00
2835,771.00
2836,771.00
2837,772.00
2838,772.00
2839,773.00
2840,773.00
2841,773.00
2842,772.00
2843,770.00
2844,770.00
2845,771.00
2846,772.00
2847,772.00
2848,772.00
2849,775.00
2850,774.00
2851,772.00
2852,770.00
2853,768.00
2854,766.00
2855,764.00
2856,763.00
2857,762.00
2858,760.00
2859,758.00
2860,756.00
2861,753.00
2862,751.00
2863,746.00
2864,744.00
2865,741.00
2866,738.00
2867,729.00
2868,734.00
2869,731.00
2870,728.00
2871,727.00
2872,723.00
2873,721.00
2874,719.00
2875,715.00
2876,713.00
2877,709.00
2878,705.00
2879,704.00
2880,701.00
2881,699.00
2882,697.00
2883,695.00
2884,696.00
2885,692.00
2886,690.00
2887,689.00
2888,686.00
2889,684.00
2890,682.00
2891,679.00
2892,677.00
2893,674.00
2894,670.00
2895,670.00
2896,670.00
2897,667.00
2898,666.00
2899,665.00
2900,664.00
2901,662.00
2902,662.00
2903,661.00
2904,660.00
2905,659.00
2906,659.00
2907,657.00
2908,658.00
2909,657.00
2910,657.00
2911,657.00
2912,656.00
2913,655.00
2914,655.00
2915,654.00
2916,655.00
2917,654.00
2918,654.00
2919,655.00
2920,652.00
2921,652.00
2922,654.00
2923,652.00
2924,652.00
2925,650.00
2926,652.00
2927,652.00
2928,651.00
2929,652.00
2930,652.00
2931,653.00
2932,654.00
2933,655.00
2934,656.00
2935,657.00
2936,660.00
2937,661.00
2938,665.00
2939,671.00
2940,676.00
2941,683.00
2942,688.00
2943,695.00
2944,698.00
2945,706.00
2946,711.00
2947,714.00
2948,718.00
2949,721.00
2950,718.00
2951,728.00
2952,733.00
2953,738.00
2954,744.00
2955,748.00
2956,754.00
2957,757.00
2958,760.00
2959,763.00
2960,763.00
2961,765.00
2962,765.00
2963,768.00
2964,771.00
2965,772.00
2966,771.00
2967,776.00
2968,775.00
2969,773.00
2970,775.00
2971,775.00
2972,776.00
2973,775.00
2974,776.00
2975,775.00
2976,775.00
2977,776.00
2978,780.00
2979,775.00
2980,774.00
2981,776.00
2982,777.00
2983,779.00
2984,779.00
2985,778.00
2986,776.00
2987,775.00
2988,778.00
2989,776.00
2990,775.00
2991,775.00
2992,774.00
2993,774.00
2994,774.00
2995,775.00
2996,775.00
2997,775.00
2998,775.00
2999,776.00
3000,779.00
3001,778.00
3002,778.00
3003,775.00
3004,776.00
3005,776.00
3006,778.00
3007,781.00
3008,779.00
3009,778.00
3010,777.00
3011,772.00
3012,775.00
3013,775.00
3014,773.00
3015,773.00
3016,772.00
3017,772.00
3018,772.00
3019,771.00
3020,771.00
3021,768.00
3022,770.00
3023,771.00
3024,769.00
3025,769.00
3026,769.00
3027,768.00
3028,768.00
3029,768.00
3030,770.00
3031,769.00
3032,764.00
3033,767.00
3034,767.00
3035,768.00
3036,770.00
3037,771.00
3038,774.00
3039,777.00
3040,779.00
3041,783.00
3042,783.00
3043,782.00
3044,783.00
3045,781.00
3046,781.00
3047,781.00
3048,778.00
3049,782.00
3050,784.00
3051,783.00
3052,783.00
3053,780.00
3054,779.00
3055,778.00
3056,777.00
3057,776.00
3058,777.00
3059,778.00
3060,777.00
3061,776.00
3062,776.00
3063,777.00
3064,773.00
3065,778.00
3066,776.00
3067,776.00
3068,775.00
3069,775.00
3070,775.00
3071,775.00
3072,773.00
3073,770.00
3074,773.00
3075,773.00
3076,771.00
3077,772.00
3078,769.00
3079,769.00
3080,768.00
3081,767.00
3082,764.00
3083,763.00
3084,762.00
3085,760.00
3086,759.00
3087,756.00
3088,754.00
3089,752.00
3090,749.00
3091,747.00
3092,747.00
3093,744.00
3094,741.00
3095,739.00
3096,736.00
3097,734.00
3098,732.00
3099,731.00
3100,730.00
3101,727.00
3102,728.00
3103,724.00
3104,722.00
3105,721.00
3106,719.00
3107,717.00
3108,712.00
3109,709.00
3110,705.00
3111,701.00
3112,699.00
3113,696.00
3114,694.00
3115,693.00
3116,691.00
3117,690.00
3118,691.00
3119,688.00
3120,686.00
3121,685.00
3122,684.00
3123,684.00
3124,683.00
3125,682.00
3126,682.00
3127,679.00
3128,680.00
3129,680.00
3130,679.00
3131,679.00
3132,678.00
3133,678.00
3134,679.00
3135,676.00
3136,677.00
3137,678.00
3138,677.00
3139,678.00
3140,679.00
3141,680.00
3142,683.00
3143,688.00
3144,694.00
3145,700.00
3146,709.00
3147,720.00
3148,729.00
3149,740.00
3150,754.00
3151,767.00
3152,777.00
3153,783.00
3154,785.00
3155,786.00
3156,787.00
3157,790.00
3158,794.00
3159,797.00
3160,794.00
3161,792.00
3162,789.00
3163,789.00
3164,787.00
3165,788.00
3166,787.00
3167,791.00
3168,792.00
3169,791.00
3170,794.00
3171,793.00
3172,792.00
3173,793.00
3174,791.00
3175,791.00
3176,787.00
3177,784.00
3178,785.00
3179,783.00
3180,782.00
3181,783.00
3182,781.00
3183,780.00
3184,780.00
3185,779.00
3186,780.00
3187,778.00
3188,778.00
3189,779.00
3190,775.00
3191,776.00
3192,776.00
3193,776.00
3194,777.00
3195,775.00
3196,774.00
3197,773.00
3198,768.00
3199,774.00
3200,774.00
3201,776.00
3202,775.00
3203,772.00
3204,774.00
3205,777.00
3206,777.00
3207,777.00
3208,774.00
3209,773.00
3210,773.00
3211,774.00
3212,774.00
3213,777.00
3214,777.00
3215,777.00
3216,776.00
3217,777.00
3218,779.00
3219,777.00
3220,776.00
3221,775.00
3222,775.00
3223,775.00
3224,775.00
3225,776.00
3226,775.00
3227,773.00
3228,775.00
3229,774.00
3230,774.00
3231,775.00
3232,775.00
3233,776.00
3234,775.00
3235,778.00
3236,779.00
3237,779.00
3238,778.00
3239,778.00
3240,779.00
3241,778.00
3242,780.00
3243,780.00
3244,774.00
3245,779.00
3246,779.00
3247,777.00
3248,775.00
3249,776.00
3250,773.00
3251,775.00
3252,774.00
3253,774.00
3254,773.00
3255,771.00
3256,772.00
3257,771.00
3258,770.00
3259,769.00
3260,769.00
3261,768.00
3262,768.00
3263,767.00
3264,767.00
3265,761.00
3266,768.00
3267,770.00
3268,770.00
3269,772.00
3270,770.00
3271,769.00
3272,770.00
3273,768.00
3274,767.00
3275,765.00
3276,764.00
3277,763.00
3278,762.00
3279,761.00
3280,760.00
3281,758.00
3282,759.00
3283,760.00
3284,759.00
3285,759.00
3286,757.00
3287,757.00
3288,756.00
3289,755.00
3290,753.00
3291,753.00
3292,753.00
3293,754.00
3294,751.00
3295,752.00
3296,751.00
3297,750.00
3298,750.00
3299,748.00
3300,747.00
3301,746.00
3302,742.00
3303,742.00
3304,738.00
3305,736.00
3306,737.00
3307,732.00
3308,731.00
3309,729.00
3310,725.00
3311,725.00
3312,723.00
3313,723.00
3314,722.00
3315,721.00
3316,720.00
3317,718.00
3318,716.00
3319,714.00
3320,714.00
3321,712.00
3322,710.00
3323,710.00
3324,707.00
3325,706.00
3326,704.00
3327,703.00
3328,700.00
3329,699.00
3330,697.00
3331,694.00
3332,691.00
3333,689.00
3334,687.00
3335,685.00
3336,684.00
3337,684.00
3338,681.00
3339,680.00
3340,678.00
3341,677.00
3342,675.00
3343,673.00
3344,672.00
3345,672.00
3346,668.00
3347,668.00
3348,665.00
3349,665.00
3350,664.00
3351,662.00
3352,662.00
3353,657.00
3354,660.00
3355,660.00
3356,658.00
3357,658.00
3358,658.00
3359,656.00
3360,656.00
3361,655.00
3362,654.00
3363,654.00
3364,652.00
3365,653.00
3366,652.00
3367,651.00
3368,651.00
3369,650.00
3370,650.00
3371,650.00
3372,650.00
3373,655.00
3374,657.00
3375,664.00
3376,675.00
3377,687.00
3378,705.00
3379,720.00
3380,732.00
3381,744.00
3382,754.00
3383,763.00
3384,771.00
3385,775.00
3386,780.00
3387,780.00
3388,782.00
3389,784.00
3390,786.00
3391,787.00
3392,790.00
3393,791.00
3394,793.00
3395,791.00
3396,793.00
3397,794.00
3398,795.00
3399,796.00
3400,794.00
3401,795.00
3402,797.00
3403,796.00
3404,795.00
3405,795.00
3406,795.00
3407,796.00
3408,797.00
3409,798.00
3410,798.00
3411,797.00
3412,796.00
3413,798.00
3414,794.00
3415,791.00
3416,790.00
3417,790.00
3418,787.00
3419,787.00
3420,785.00
3421,783.00
3422,785.00
3423,783.00
3424,788.00
3425,785.00
3426,782.00
3427,784.00
3428,784.00
3429,790.00
3430,785.00
3431,786.00
3432,786.00
3433,785.00
3434,786.00
3435,786.00
3436,784.00
3437,785.00
3438,785.00
3439,787.00
3440,789.00
3441,790.00
3442,791.00
3443,788.00
3444,789.00
3445,789.00
3446,787.00
3447,789.00
3448,789.00
3449,788.00
3450,788.00
3451,787.00
3452,787.00
3453,790.00
3454,790.00
3455,792.00
3456,792.00
3457,794.00
3458,796.00
3459,797.00
3460,798.00
3461,798.00
3462,799.00
3463,799.00
3464,799.00
3465,801.00
3466,799.00
3467,798.00
3468,799.00
3469,797.00
3470,795.00
3471,796.00
3472,796.00
3473,796.00
3474,796.00
3475,796.00
3476,797.00
3477,797.00
3478,797.00
3479,797.00
3480,797.00
3481,797.00
3482,796.00
3483,795.00
3484,794.00
3485,792.00
3486,795.00
3487,794.00
3488,795.00
3489,795.00
3490,793.00
3491,794.00
3492,792.00
3493,787.00
3494,792.00
3495,789.00
3496,791.00
3497,788.00
3498,793.00
3499,789.00
3500,789.00
3501,788.00
3502,787.00
3503,793.00
3504,786.00
3505,785.00
3506,786.00
3507,783.00
3508,783.00
3509,782.00
3510,781.00
3511,780.00
3512,779.00
3513,779.00
3514,779.00
3515,778.00
3516,778.00
3517,776.00
3518,774.00
3519,775.00
3520,773.00
3521,773.00
3522,771.00
3523,769.00
3524,770.00
3525,767.00
3526,766.00
3527,764.00
3528,763.00
3529,764.00
3530,762.00
3531,761.00
3532,761.00
3533,759.00
3534,760.00
3535,761.00
3536,757.00
3537,758.00
3538,756.00
3539,756.00
3540,753.00
3541,752.00
3542,752.00
3543,749.00
3544,748.00
3545,746.00
3546,744.00
3547,743.00
3548,741.00
3549,739.00
3550,737.00
3551,736.00
3552,734.00
3553,731.00
3554,730.00
3555,727.00
3556,725.00
3557,722.00
3558,720.00
3559,718.00
3560,714.00
3561,711.00
3562,709.00
3563,706.00
3564,696.00
3565,699.00
3566,695.00
3567,692.00
3568,690.00
3569,687.00
3570,685.00
3571,679.00
3572,681.00
3573,679.00
3574,677.00
3575,675.00
3576,673.00
3577,672.00
3578,670.00
3579,669.00
3580,667.00
3581,665.00
3582,665.00
3583,663.00
3584,662.00
3585,661.00
3586,659.00
3587,659.00
3588,657.00
3589,657.00
3590,656.00
3591,655.00
3592,655.00
3593,654.00
3594,650.00
3595,654.00
3596,652.00
3597,652.00
3598,651.00
3599,652.00
3600,652.00
3601,651.00
3602,652.00
3603,652.00
3604,653.00
3605,658.00
3606,666.00
3607,678.00
3608,692.00
3609,707.00
3610,722.00
3611,735.00
3612,747.00
3613,760.00
3614,771.00
3615,781.00
3616,788.00
3617,794.00
3618,798.00
3619,800.00
3620,804.00
3621,804.00
3622,805.00
3623,807.00
3624,804.00
3625,804.00
3626,805.00
3627,804.00
3628,805.00
3629,804.00
3630,804.00
3631,803.00
3632,802.00
3633,803.00
3634,801.00
3635,801.00
3636,800.00
3637,799.00
3638,800.00
3639,797.00
3640,797.00
3641,795.00
3642,795.00
3643,794.00
3644,792.00
3645,791.00
3646,788.00
3647,786.00
3648,783.00
3649,785.00
3650,784.00
3651,784.00
3652,782.00
3653,783.00
3654,782.00
3655,782.00
3656,782.00
3657,781.00
3658,781.00
3659,782.00
3660,784.00
3661,783.00
3662,784.00
3663,785.00
3664,784.00
3665,786.00
3666,786.00
3667,784.00
3668,784.00
3669,784.00
3670,783.00
3671,785.00
3672,784.00
3673,785.00
3674,785.00
3675,786.00
3676,786.00
3677,785.00
3678,786.00
3679,785.00
3680,785.00
3681,785.00
3682,786.00
3683,785.00
3684,785.00
3685,783.00
3686,784.00
3687,783.00
3688,785.00
3689,785.00
3690,785.00
3691,786.00
3692,785.00
3693,786.00
3694,784.00
3695,779.00
3696,784.00
3697,784.00
3698,785.00
3699,785.00
3700,786.00
3701,786.00
3702,787.00
3703,786.00
3704,786.00
3705,785.00
3706,787.00
3707,785.00
3708,786.00
3709,785.00
3710,785.00
3711,786.00
3712,785.00
3713,783.00
3714,784.00
3715,784.00
3716,783.00
3717,781.00
3718,782.00
3719,780.00
3720,777.00
3721,778.00
3722,776.00
3723,777.00
3724,777.00
3725,776.00
3726,774.00
3727,772.00
3728,772.00
3729,770.00
3730,770.00
3731,771.00
3732,769.00
3733,768.00
3734,768.00
3735,769.00
3736,765.00
3737,764.00
3738,763.00
3739,763.00
3740,762.00
3741,762.00
3742,760.00
3743,758.00
3744,757.00
3745,754.00
3746,754.00
3747,752.00
3748,751.00
3749,749.00
3750,747.00
3751,747.00
3752,745.00
3753,745.00
3754,743.00
3755,740.00
3756,740.00
3757,738.00
3758,736.00
3759,735.00
3760,731.00
3761,730.00
3762,729.00
3763,726.00
3764,726.00
3765,722.00
3766,720.00
3767,717.00
3768,717.00
3769,715.00
3770,713.00
3771,712.00
3772,709.00
3773,707.00
3774,705.00
3775,703.00
3776,702.00
3777,699.00
3778,699.00
3779,697.00
3780,694.00
3781,692.00
3782,691.00
3783,689.00
3784,688.00
3785,687.00
3786,685.00
3787,682.00
3788,683.00
3789,679.00
3790,677.00
3791,676.00
3792,674.00
3793,673.00
3794,673.00
3795,670.00
3796,670.00
3797,668.00
3798,667.00
3799,667.00
3800,665.00
3801,665.00
3802,663.00
3803,660.00
3804,662.00
3805,661.00
3806,662.00
3807,660.00
3808,662.00
3809,659.00
3810,659.00
3811,660.00
3812,660.00
3813,662.00
3814,668.00
3815,679.00
3816,698.00
3817,718.00
3818,735.00
3819,759.00
3820,773.00
3821,785.00
3822,794.00
3823,802.00
3824,807.00
3825,808.00
3826,811.00
3827,809.00
3828,811.00
3829,809.00
3830,809.00
3831,808.00
3832,805.00
3833,805.00
3834,803.00
3835,804.00
3836,803.00
3837,803.00
3838,803.00
3839,802.00
3840,800.00
3841,799.00
3842,794.00
3843,793.00
3844,791.00
3845,790.00
3846,789.00
3847,787.00
3848,788.00
3849,787.00
3850,786.00
3851,789.00
3852,789.00
3853,790.00
3854,790.00
3855,790.00
3856,792.00
3857,785.00
3858,793.00
3859,797.00
3860,799.00
3861,802.00
3862,803.00
3863,809.00
3864,806.00
3865,808.00
3866,811.00
3867,812.00
3868,815.00
3869,817.00
3870,819.00
3871,816.00
3872,817.00
3873,817.00
3874,814.00
3875,815.00
3876,816.00
3877,816.00
3878,815.00
3879,813.00
3880,811.00
3881,811.00
3882,807.00
3883,808.00
3884,809.00
3885,807.00
3886,806.00
3887,805.00
3888,804.00
3889,803.00
3890,803.00
3891,803.00
3892,799.00
3893,800.00
3894,800.00
3895,799.00
3896,797.00
3897,798.00
3898,796.00
3899,793.00
3900,800.00
3901,791.00
3902,789.00
3903,788.00
3904,787.00
3905,786.00
3906,783.00
3907,783.00
3908,780.00
3909,778.00
3910,776.00
3911,774.00
3912,772.00
3913,772.00
3914,769.00
3915,768.00
3916,765.00
3917,765.00
3918,763.00
3919,758.00
3920,760.00
3921,757.00
3922,756.00
3923,753.00
3924,750.00
3925,748.00
3926,746.00
3927,744.00
3928,742.00
3929,739.00
3930,737.00
3931,733.00
3932,730.00
3933,727.00
3934,724.00
3935,721.00
3936,719.00
3937,717.00
3938,713.00
3939,711.00
3940,709.00
3941,706.00
3942,703.00
3943,701.00
3944,696.00
3945,695.00
3946,693.00
3947,693.00
3948,689.00
3949,688.00
3950,686.00
3951,684.00
3952,682.00
3953,681.00
3954,679.00
3955,678.00
3956,674.00
3957,674.00
3958,672.00
3959,669.00
3960,669.00
3961,668.00
3962,666.00
3963,664.00
3964,663.00
3965,661.00
3966,659.00
3967,658.00
3968,656.00
3969,656.00
3970,654.00
3971,652.00
3972,652.00
3973,650.00
3974,650.00
3975,649.00
3976,647.00
3977,647.00
3978,646.00
3979,645.00
3980,645.00
3981,643.00
3982,644.00
3983,642.00
3984,642.00
3985,642.00
3986,641.00
3987,641.00
3988,632.00
3989,641.00
3990,640.00
3991,639.00
3992,639.00
3993,637.00
3994,638.00
3995,637.00
3996,641.00
3997,637.00
3998,637.00
3999,637.00
4000,638.00
4001,639.00
4002,644.00
4003,647.00
4004,653.00
4005,659.00
4006,665.00
4007,674.00
4008,683.00
4009,697.00
4010,710.00
4011,724.00
4012,741.00
4013,747.00
4014,755.00
4015,765.00
4016,774.00
4017,779.00
4018,786.00
4019,792.00
4020,794.00
4021,796.00
4022,798.00
4023,799.00
4024,797.00
4025,797.00
4026,797.00
4027,796.00
4028,799.00
4029,799.00
4030,804.00
4031,800.00
4032,798.00
4033,798.00
4034,798.00
4035,800.00
4036,800.00
4037,800.00
4038,800.00
4039,798.00
4040,797.00
4041,798.00
4042,794.00
4043,796.00
4044,793.00
4045,793.00
4046,792.00
4047,790.00
4048,789.00
4049,787.00
4050,787.00
4051,786.00
4052,785.00
4053,784.00
4054,784.00
4055,784.00
4056,784.00
4057,783.00
4058,782.00
4059,780.00
4060,782.00
4061,781.00
4062,780.00
4063,780.00
4064,778.00
4065,779.00
4066,777.00
4067,776.00
4068,777.00
4069,777.00
4070,779.00
4071,775.00
4072,775.00
4073,774.00
4074,773.00
4075,772.00
4076,771.00
4077,773.00
4078,773.00
4079,773.00
4080,777.00
4081,768.00
4082,771.00
4083,771.00
4084,771.00
4085,770.00
4086,771.00
4087,771.00
4088,769.00
4089,766.00
4090,770.00
4091,769.00
4092,770.00
4093,770.00
4094,771.00
4095,772.00
4096,771.00
4097,771.00
4098,770.00
4099,770.00
4100,771.00
4101,771.00
4102,771.00
4103,769.00
4104,769.00
4105,769.00
4106,771.00
4107,768.00
4108,769.00
4109,769.00
4110,767.00
4111,768.00
4112,769.00
4113,767.00
4114,769.00
4115,768.00
4116,769.00
4117,767.00
4118,767.00
4119,768.00
4120,766.00
4121,767.00
4122,768.00
4123,768.00
4124,767.00
4125,768.00
4126,766.00
4127,764.00
4128,764.00
4129,761.00
4130,761.00
4131,761.00
4132,759.00
4133,758.00
4134,757.00
4135,756.00
4136,755.00
4137,753.00
4138,752.00
4139,751.00
4140,750.00
4141,749.00
4142,749.00
4143,750.00
4144,748.00
4145,748.00
4146,747.00
4147,747.00
4148,747.00
4149,745.00
4150,744.00
4151,742.00
4152,742.00
4153,739.00
4154,736.00
4155,735.00
4156,734.00
4157,731.00
4158,730.00
4159,728.00
4160,728.00
4161,726.00
4162,725.00
4163,723.00
4164,720.00
4165,720.00
4166,717.00
4167,717.00
4168,717.00
4169,713.00
4170,713.00
4171,713.00
4172,710.00
4173,708.00
4174,708.00
4175,707.00
4176,704.00
4177,703.00
4178,701.00
4179,700.00
4180,698.00
4181,696.00
4182,695.00
4183,692.00
4184,692.00
4185,689.00
4186,687.00
4187,686.00
4188,683.00
4189,682.00
4190,679.00
4191,677.00
4192,676.00
4193,674.00
4194,673.00
4195,670.00
4196,668.00
4197,668.00
4198,665.00
4199,666.00
4200,663.00
4201,663.00
4202,661.00
4203,661.00
4204,660.00
4205,659.00
4206,660.00
4207,658.00
4208,658.00
4209,658.00
4210,657.00
4211,658.00
4212,658.00
4213,669.00
4214,671.00
4215,677.00
4216,687.00
4217,695.00
4218,707.00
4219,718.00
4220,731.00
4221,744.00
4222,758.00
4223,771.00
4224,778.00
4225,786.00
4226,790.00
4227,792.00
4228,795.00
4229,796.00
4230,798.00
4231,798.00
4232,799.00
4233,798.00
4234,796.00
4235,796.00
4236,798.00
4237,795.00
4238,794.00
4239,795.00
4240,795.00
4241,793.00
4242,795.00
4243,795.00
4244,793.00
4245,793.00
4246,791.00
4247,790.00
4248,788.00
4249,788.00
4250,787.00
4251,785.00
4252,785.00
4253,783.00
4254,783.00
4255,783.00
4256,780.00
4257,781.00
4258,779.00
4259,779.00
4260,779.00
4261,778.00
4262,778.00
4263,776.00
4264,776.00
4265,776.00
4266,777.00
4267,777.00
4268,778.00
4269,779.00
4270,779.00
4271,781.00
4272,777.00
4273,783.00
4274,783.00
4275,783.00
4276,787.00
4277,782.00
4278,781.00
4279,781.00
4280,781.00
4281,781.00
4282,779.00
4283,780.00
4284,779.00
4285,781.00
4286,781.00
4287,779.00
4288,779.00
4289,779.00
4290,780.00
4291,780.00
4292,785.00
4293,779.00
4294,779.00
4295,781.00
4296,780.00
4297,779.00
4298,779.00
4299,779.00
4300,779.00
4301,780.00
4302,782.00
4303,780.00
4304,780.00
4305,775.00
4306,781.00
4307,782.00
4308,781.00
4309,781.00
4310,782.00
4311,780.00
4312,781.00
4313,778.00
4314,782.00
4315,781.00
4316,780.00
4317,781.00
4318,779.00
4319,779.00
4320,778.00
4321,777.00
4322,776.00
4323,774.00
4324,773.00
4325,771.00
4326,771.00
4327,772.00
4328,773.00
4329,772.00
4330,769.00
4331,769.00
4332,769.00
4333,768.00
4334,767.00
4335,767.00
4336,765.00
4337,768.00
4338,763.00
4339,763.00
4340,761.00
4341,760.00
4342,758.00
4343,757.00
4344,758.00
4345,757.00
4346,755.00
4347,753.00
4348,755.00
4349,753.00
4350,752.00
4351,750.00
4352,749.00
4353,749.00
4354,747.00
4355,746.00
4356,743.00
4357,745.00
4358,744.00
4359,741.00
4360,741.00
4361,737.00
4362,737.00
4363,736.00
4364,734.00
4365,731.00
4366,729.00
4367,728.00
4368,725.00
4369,724.00
4370,722.00
4371,719.00
4372,718.00
4373,716.00
4374,715.00
4375,712.00
4376,711.00
4377,709.00
4378,709.00
4379,705.00
4380,702.00
4381,701.00
4382,704.00
4383,697.00
4384,696.00
4385,694.00
4386,692.00
4387,690.00
4388,688.00
4389,686.00
4390,684.00
4391,684.00
4392,681.00
4393,681.00
4394,678.00
4395,678.00
4396,673.00
4397,673.00
4398,673.00
4399,670.00
4400,668.00
4401,665.00
4402,663.00
4403,661.00
4404,658.00
4405,657.00
4406,654.00
4407,654.00
4408,653.00
4409,652.00
4410,650.00
4411,649.00
4412,649.00
4413,646.00
4414,648.00
4415,646.00
4416,643.00
4417,643.00
4418,642.00
4419,642.00
4420,641.00
4421,640.00
4422,639.00
4423,637.00
4424,639.00
4425,635.00
4426,635.00
4427,636.00
4428,638.00
4429,639.00
4430,641.00
4431,647.00
4432,656.00
4433,672.00
4434,690.00
4435,705.00
4436,725.00
4437,738.00
4438,753.00
4439,766.00
4440,776.00
4441,787.00
4442,793.00
4443,798.00
4444,799.00
4445,801.00
4446,800.00
4447,799.00
4448,801.00
4449,800.00
4450,800.00
4451,800.00
4452,799.00
4453,798.00
4454,798.00
4455,802.00
4456,796.00
4457,797.00
4458,795.00
4459,794.00
4460,793.00
4461,791.00
4462,790.00
4463,789.00
4464,789.00
4465,790.00
4466,789.00
4467,786.00
4468,785.00
4469,785.00
4470,783.00
4471,782.00
4472,782.00
4473,781.00
4474,782.00
4475,780.00
4476,779.00
4477,778.00
4478,777.00
4479,777.00
4480,777.00
4481,778.00
4482,779.00
4483,779.00
4484,780.00
4485,782.00
4486,784.00
4487,785.00
4488,786.00
4489,785.00
4490,786.00
4491,789.00
4492,786.00
4493,787.00
4494,787.00
4495,788.00
4496,787.00
4497,785.00
4498,784.00
4499,784.00
4500,784.00
4501,782.00
4502,782.00
4503,781.00
4504,782.00
4505,781.00
4506,781.00
4507,781.00
4508,781.00
4509,783.00
4510,783.00
4511,782.00
4512,782.00
4513,781.00
4514,782.00
4515,781.00
4516,782.00
4517,781.00
4518,779.00
4519,778.00
4520,776.00
4521,777.00
4522,776.00
4523,776.00
4524,776.00
4525,774.00
4526,772.00
4527,770.00
4528,767.00
4529,768.00
4530,767.00
4531,765.00
4532,762.00
4533,763.00
4534,753.00
4535,758.00
4536,757.00
4537,756.00
4538,755.00
4539,754.00
4540,753.00
4541,751.00
4542,750.00
4543,748.00
4544,747.00
4545,745.00
4546,743.00
4547,743.00
4548,740.00
4549,739.00
4550,736.00
4551,736.00
4552,734.00
4553,730.00
4554,728.00
4555,725.00
4556,722.00
4557,719.00
4558,719.00
4559,715.00
4560,713.00
4561,711.00
4562,708.00
4563,707.00
4564,704.00
4565,702.00
4566,700.00
4567,697.00
4568,696.00
4569,691.00
4570,690.00
4571,687.00
4572,686.00
4573,682.00
4574,680.00
4575,679.00
4576,676.00
4577,668.00
4578,671.00
4579,667.00
4580,661.00
4581,665.00
4582,663.00
4583,662.00
4584,659.00
4585,656.00
4586,654.00
4587,653.00
4588,651.00
4589,650.00
4590,647.00
4591,644.00
4592,642.00
4593,640.00
4594,636.00
4595,635.00
4596,633.00
4597,631.00
4598,630.00
4599,628.00
4600,627.00
4601,624.00
4602,618.00
4603,619.00
4604,617.00
4605,615.00
4606,615.00
4607,613.00
4608,613.00
4609,612.00
4610,612.00
4611,610.00
4612,610.00
4613,612.00
4614,615.00
4615,625.00
4616,638.00
4617,655.00
4618,671.00
4619,688.00
4620,706.00
4621,726.00
4622,745.00
4623,761.00
4624,774.00
4625,781.00
4626,787.00
4627,792.00
4628,795.00
4629,796.00
4630,796.00
4631,798.00
4632,798.00
4633,798.00
4634,800.00
4635,801.00
4636,803.00
4637,802.00
4638,803.00
4639,802.00
4640,802.00
4641,802.00
4642,801.00
4643,801.00
4644,799.00
4645,800.00
4646,799.00
4647,799.00
4648,797.00
4649,795.00
4650,794.00
4651,792.00
4652,789.00
4653,789.00
4654,788.00
4655,789.00
4656,785.00
4657,784.00
4658,783.00
4659,783.00
4660,782.00
4661,782.00
4662,784.00
4663,786.00
4664,790.00
4665,795.00
4666,800.00
4667,800.00
4668,803.00
4669,798.00
4670,803.00
4671,805.00
4672,808.00
4673,810.00
4674,808.00
4675,807.00
4676,809.00
4677,807.00
4678,809.00
4679,810.00
4680,812.00
4681,810.00
4682,809.00
4683,806.00
4684,807.00
4685,805.00
4686,804.00
4687,805.00
4688,803.00
4689,802.00
4690,801.00
4691,797.00
4692,795.00
4693,792.00
4694,790.00
4695,789.00
4696,788.00
4697,786.00
4698,785.00
4699,784.00
4700,779.00
4701,780.00
4702,773.00
4703,772.00
4704,768.00
4705,768.00
4706,764.00
4707,761.00
4708,764.00
4709,755.00
4710,753.00
4711,749.00
4712,749.00
4713,745.00
4714,743.00
4715,740.00
4716,736.00
4717,733.00
4718,729.00
4719,727.00
4720,724.00
4721,721.00
4722,710.00
4723,714.00
4724,712.00
4725,707.00
4726,704.00
4727,700.00
4728,698.00
4729,697.00
4730,693.00
4731,691.00
4732,689.00
4733,687.00
4734,683.00
4735,680.00
4736,678.00
4737,675.00
4738,673.00
4739,670.00
4740,668.00
4741,665.00
4742,663.00
4743,662.00
4744,659.00
4745,659.00
4746,655.00
4747,653.00
4748,650.00
4749,648.00
4750,646.00
4751,643.00
4752,640.00
4753,638.00
4754,635.00
4755,634.00
4756,632.00
4757,629.00
4758,628.00
4759,626.00
4760,625.00
4761,624.00
4762,622.00
4763,620.00
4764,620.00
4765,618.00
4766,618.00
4767,616.00
4768,616.00
4769,614.00
4770,608.00
4771,612.00
4772,612.00
4773,612.00
4774,609.00
4775,611.00
4776,609.00
4777,609.00
4778,608.00
4779,609.00
4780,608.00
4781,607.00
4782,607.00
4783,606.00
4784,606.00
4785,605.00
4786,606.00
4787,604.00
4788,604.00
4789,604.00
4790,604.00
4791,604.00
4792,603.00
4793,606.00
4794,611.00
4795,623.00
4796,636.00
4797,651.00
4798,668.00
4799,682.00
4800,697.00
4801,711.00
4802,722.00
4803,733.00
4804,742.00
4805,753.00
4806,758.00
4807,765.00
4808,769.00
4809,774.00
4810,779.00
4811,785.00
4812,790.00
4813,791.00
4814,795.00
4815,794.00
4816,796.00
4817,797.00
4818,792.00
4819,800.00
4820,800.00
4821,800.00
4822,797.00
4823,800.00
4824,797.00
4825,798.00
4826,799.00
4827,799.00
4828,800.00
4829,797.00
4830,798.00
4831,797.00
4832,796.00
4833,795.00
4834,794.00
4835,793.00
4836,792.00
4837,792.00
4838,791.00
4839,790.00
4840,790.00
4841,788.00
4842,786.00
4843,785.00
4844,784.00
4845,782.00
4846,782.00
4847,780.00
4848,780.00
4849,780.00
4850,779.00
4851,778.00
4852,777.00
4853,777.00
4854,776.00
4855,776.00
4856,777.00
4857,777.00
4858,778.00
4859,777.00
4860,777.00
4861,775.00
4862,775.00
4863,775.00
4864,774.00
4865,774.00
4866,775.00
4867,776.00
4868,777.00
4869,780.00
4870,780.00
4871,785.00
4872,783.00
4873,783.00
4874,784.00
4875,784.00
4876,785.00
4877,786.00
4878,788.00
4879,788.00
4880,787.00
4881,789.00
4882,787.00
4883,786.00
4884,786.00
4885,788.00
4886,788.00
4887,789.00
4888,791.00
4889,790.00
4890,789.00
4891,787.00
4892,787.00
4893,785.00
4894,785.00
4895,784.00
4896,787.00
4897,783.00
4898,782.00
4899,782.00
4900,780.00
4901,779.00
4902,778.00
4903,777.00
4904,779.00
4905,775.00
4906,774.00
4907,773.00
4908,771.00
4909,769.00
4910,767.00
4911,764.00
4912,762.00
4913,762.00
4914,759.00
4915,759.00
4916,757.00
4917,755.00
4918,752.00
4919,749.00
4920,749.00
4921,746.00
4922,749.00
4923,743.00
4924,740.00
4925,737.00
4926,735.00
4927,732.00
4928,730.00
4929,729.00
4930,730.00
4931,723.00
4932,720.00
4933,717.00
4934,713.00
4935,708.00
4936,706.00
4937,703.00
4938,700.00
4939,696.00
4940,692.00
4941,688.00
4942,685.00
4943,681.00
4944,678.00
4945,676.00
4946,673.00
4947,672.00
4948,669.00
4949,669.00
4950,667.00
4951,666.00
4952,665.00
4953,664.00
4954,660.00
4955,658.00
4956,656.00
4957,653.00
4958,650.00
4959,647.00
4960,642.00
4961,642.00
4962,635.00
4963,635.00
4964,631.00
4965,628.00
4966,626.00
4967,621.00
4968,622.00
4969,620.00
4970,619.00
4971,617.00
4972,616.00
4973,612.00
4974,615.00
4975,614.00
4976,612.00
4977,612.00
4978,611.00
4979,611.00
4980,610.00
4981,610.00
4982,609.00
4983,609.00
4984,607.00
4985,606.00
4986,607.00
4987,606.00
4988,606.00
4989,606.00
4990,607.00
4991,609.00
4992,615.00
4993,625.00
4994,640.00
4995,655.00
4996,679.00
4997,687.00
4998,702.00
4999,716.00
5000,727.00
