ms,resistance
1,558.00
2,559.00
3,559.00
4,559.00
5,559.00
6,559.00
7,559.00
8,559.00
9,559.00
10,558.00
11,560.00
12,559.00
13,560.00
14,558.00
15,560.00
16,557.00
17,560.00
18,559.00
19,562.00
20,557.00
21,560.00
22,562.00
23,557.00
24,560.00
25,562.00
26,562.00
27,558.00
28,560.00
29,559.00
30,559.00
31,559.00
32,558.00
33,562.00
34,559.00
35,561.00
36,558.00
37,560.00
38,559.00
39,558.00
40,560.00
41,558.00
42,560.00
43,558.00
44,561.00
45,558.00
46,562.00
47,559.00
48,561.00
49,561.00
50,559.00
51,562.00
52,562.00
53,563.00
54,556.00
55,561.00
56,557.00
57,559.00
58,559.00
59,559.00
60,561.00
61,559.00
62,559.00
63,559.00
64,559.00
65,558.00
66,552.00
67,560.00
68,559.00
69,558.00
70,558.00
71,562.00
72,557.00
73,561.00
74,559.00
75,562.00
76,560.00
77,558.00
78,559.00
79,560.00
80,559.00
81,559.00
82,559.00
83,560.00
84,560.00
85,554.00
86,559.00
87,559.00
88,559.00
89,559.00
90,559.00
91,559.00
92,559.00
93,559.00
94,559.00
95,559.00
96,559.00
97,558.00
98,560.00
99,559.00
100,560.00
101,559.00
102,558.00
103,558.00
104,558.00
105,559.00
106,558.00
107,558.00
108,558.00
109,558.00
110,558.00
111,558.00
112,558.00
113,558.00
114,558.00
115,558.00
116,558.00
117,558.00
118,558.00
119,558.00
120,558.00
121,558.00
122,558.00
123,558.00
124,558.00
125,558.00
126,558.00
127,558.00
128,558.00
129,558.00
130,558.00
131,558.00
132,558.00
133,558.00
134,558.00
135,558.00
136,558.00
137,555.00
138,558.00
139,558.00
140,558.00
141,558.00
142,558.00
143,558.00
144,558.00
145,558.00
146,557.00
147,557.00
148,558.00
149,558.00
150,558.00
151,558.00
152,558.00
153,558.00
154,555.00
155,558.00
156,558.00
157,558.00
158,558.00
159,558.00
160,558.00
161,558.00
162,558.00
163,557.00
164,558.00
165,558.00
166,558.00
167,558.00
168,558.00
169,558.00
170,558.00
171,558.00
172,558.00
173,558.00
174,558.00
175,558.00
176,558.00
177,558.00
178,558.00
179,558.00
180,558.00
181,558.00
182,558.00
183,558.00
184,558.00
185,558.00
186,558.00
187,557.00
188,558.00
189,558.00
190,558.00
191,558.00
192,558.00
193,558.00
194,557.00
195,557.00
196,558.00
197,558.00
198,557.00
199,557.00
200,557.00
201,558.00
202,558.00
203,557.00
204,557.00
205,558.00
206,558.00
207,558.00
208,558.00
209,557.00
210,558.00
211,557.00
212,558.00
213,558.00
214,558.00
215,558.00
216,557.00
217,557.00
218,557.00
219,557.00
220,557.00
221,558.00
222,557.00
223,558.00
224,557.00
225,558.00
226,558.00
227,557.00
228,557.00
229,558.00
230,558.00
231,557.00
232,557.00
233,557.00
234,557.00
235,557.00
236,557.00
237,557.00
238,557.00
239,557.00
240,557.00
241,557.00
242,557.00
243,556.00
244,557.00
245,557.00
246,557.00
247,557.00
248,558.00
249,558.00
250,557.00
251,557.00
252,557.00
253,558.00
254,557.00
255,557.00
256,557.00
257,557.00
258,557.00
259,557.00
260,557.00
261,557.00
262,557.00
263,557.00
264,557.00
265,557.00
266,557.00
267,557.00
268,557.00
269,557.00
270,557.00
271,557.00
272,557.00
273,557.00
274,557.00
275,556.00
276,557.00
277,557.00
278,557.00
279,557.00
280,557.00
281,557.00
282,557.00
283,557.00
284,557.00
285,557.00
286,557.00
287,557.00
288,557.00
289,557.00
290,557.00
291,556.00
292,557.00
293,557.00
294,557.00
295,557.00
296,557.00
297,557.00
298,557.00
299,557.00
300,557.00
301,557.00
302,557.00
303,557.00
304,557.00
305,557.00
306,557.00
307,556.00
308,557.00
309,557.00
310,557.00
311,557.00
312,557.00
313,557.00
314,557.00
315,557.00
316,557.00
317,557.00
318,557.00
319,557.00
320,557.00
321,557.00
322,557.00
323,557.00
324,557.00
325,557.00
326,557.00
327,557.00
328,557.00
329,557.00
330,557.00
331,557.00
332,557.00
333,554.00
334,557.00
335,557.00
336,557.00
337,557.00
338,557.00
339,556.00
340,557.00
341,556.00
342,557.00
343,557.00
344,557.00
345,557.00
346,556.00
347,556.00
348,557.00
349,557.00
350,557.00
351,557.00
352,557.00
353,558.00
354,558.00
355,557.00
356,558.00
357,558.00
358,558.00
359,557.00
360,557.00
361,557.00
362,556.00
363,556.00
364,557.00
365,557.00
366,556.00
367,553.00
368,556.00
369,556.00
370,556.00
371,556.00
372,557.00
373,557.00
374,556.00
375,556.00
376,556.00
377,556.00
378,557.00
379,556.00
380,556.00
381,557.00
382,556.00
383,556.00
384,557.00
385,556.00
386,556.00
387,556.00
388,556.00
389,556.00
390,556.00
391,557.00
392,557.00
393,556.00
394,556.00
395,556.00
396,557.00
397,557.00
398,556.00
399,556.00
400,556.00
401,556.00
402,556.00
403,555.00
404,556.00
405,556.00
406,556.00
407,556.00
408,556.00
409,556.00
410,556.00
411,556.00
412,556.00
413,556.00
414,556.00
415,556.00
416,556.00
417,556.00
418,556.00
419,555.00
420,556.00
421,556.00
422,556.00
423,556.00
424,556.00
425,556.00
426,556.00
427,556.00
428,556.00
429,556.00
430,556.00
431,555.00
432,556.00
433,555.00
434,556.00
435,555.00
436,556.00
437,556.00
438,556.00
439,556.00
440,556.00
441,556.00
442,556.00
443,556.00
444,556.00
445,556.00
446,556.00
447,556.00
448,556.00
449,556.00
450,556.00
451,556.00
452,556.00
453,556.00
454,556.00
455,556.00
456,556.00
457,556.00
458,556.00
459,556.00
460,556.00
461,556.00
462,555.00
463,556.00
464,556.00
465,556.00
466,556.00
467,555.00
468,556.00
469,556.00
470,556.00
471,556.00
472,556.00
473,556.00
474,556.00
475,556.00
476,556.00
477,556.00
478,556.00
479,556.00
480,555.00
481,555.00
482,555.00
483,555.00
484,556.00
485,556.00
486,555.00
487,554.00
488,555.00
489,555.00
490,556.00
491,556.00
492,556.00
493,556.00
494,555.00
495,556.00
496,556.00
497,556.00
498,556.00
499,555.00
500,556.00
501,556.00
502,556.00
503,556.00
504,555.00
505,556.00
506,556.00
507,556.00
508,556.00
509,556.00
510,556.00
511,556.00
512,556.00
513,556.00
514,556.00
515,556.00
516,556.00
517,556.00
518,556.00
519,556.00
520,556.00
521,555.00
522,555.00
523,555.00
524,555.00
525,556.00
526,555.00
527,556.00
528,556.00
529,555.00
530,555.00
531,555.00
532,555.00
533,555.00
534,555.00
535,556.00
536,556.00
537,555.00
538,555.00
539,555.00
540,553.00
541,555.00
542,555.00
543,555.00
544,555.00
545,551.00
546,555.00
547,555.00
548,555.00
549,555.00
550,555.00
551,555.00
552,555.00
553,555.00
554,555.00
555,555.00
556,555.00
557,555.00
558,554.00
559,555.00
560,555.00
561,555.00
562,555.00
563,555.00
564,555.00
565,555.00
566,555.00
567,555.00
568,555.00
569,555.00
570,555.00
571,556.00
572,555.00
573,555.00
574,555.00
575,555.00
576,555.00
577,555.00
578,555.00
579,555.00
580,555.00
581,555.00
582,555.00
583,555.00
584,555.00
585,555.00
586,555.00
587,555.00
588,555.00
589,555.00
590,555.00
591,555.00
592,555.00
593,555.00
594,555.00
595,552.00
596,554.00
597,554.00
598,555.00
599,555.00
600,555.00
601,555.00
602,555.00
603,555.00
604,555.00
605,555.00
606,555.00
607,555.00
608,555.00
609,555.00
610,555.00
611,552.00
612,555.00
613,555.00
614,555.00
615,555.00
616,555.00
617,555.00
618,555.00
619,555.00
620,554.00
621,554.00
622,553.00
623,555.00
624,555.00
625,554.00
626,555.00
627,555.00
628,555.00
629,554.00
630,555.00
631,555.00
632,555.00
633,554.00
634,554.00
635,554.00
636,554.00
637,555.00
638,554.00
639,554.00
640,554.00
641,555.00
642,555.00
643,553.00
644,555.00
645,555.00
646,555.00
647,553.00
648,554.00
649,554.00
650,555.00
651,554.00
652,555.00
653,553.00
654,555.00
655,555.00
656,555.00
657,555.00
658,555.00
659,553.00
660,554.00
661,554.00
662,555.00
663,554.00
664,554.00
665,554.00
666,555.00
667,554.00
668,555.00
669,554.00
670,555.00
671,554.00
672,554.00
673,554.00
674,554.00
675,554.00
676,554.00
677,554.00
678,554.00
679,554.00
680,554.00
681,554.00
682,554.00
683,554.00
684,554.00
685,554.00
686,554.00
687,554.00
688,554.00
689,554.00
690,554.00
691,554.00
692,555.00
693,554.00
694,554.00
695,555.00
696,554.00
697,554.00
698,554.00
699,554.00
700,554.00
701,554.00
702,554.00
703,554.00
704,554.00
705,554.00
706,554.00
707,554.00
708,555.00
709,554.00
710,554.00
711,554.00
712,554.00
713,554.00
714,554.00
715,555.00
716,554.00
717,555.00
718,554.00
719,554.00
720,554.00
721,554.00
722,554.00
723,554.00
724,554.00
725,554.00
726,554.00
727,553.00
728,554.00
729,554.00
730,554.00
731,554.00
732,554.00
733,554.00
734,553.00
735,554.00
736,554.00
737,554.00
738,554.00
739,554.00
740,554.00
741,554.00
742,553.00
743,554.00
744,554.00
745,554.00
746,554.00
747,554.00
748,554.00
749,554.00
750,554.00
751,554.00
752,554.00
753,555.00
754,554.00
755,553.00
756,554.00
757,554.00
758,554.00
759,554.00
760,554.00
761,554.00
762,554.00
763,554.00
764,554.00
765,553.00
766,553.00
767,554.00
768,554.00
769,554.00
770,554.00
771,553.00
772,553.00
773,553.00
774,554.00
775,554.00
776,554.00
777,554.00
778,553.00
779,554.00
780,554.00
781,554.00
782,554.00
783,553.00
784,554.00
785,554.00
786,554.00
787,553.00
788,553.00
789,554.00
790,554.00
791,553.00
792,553.00
793,553.00
794,553.00
795,554.00
796,554.00
797,554.00
798,554.00
799,550.00
800,553.00
801,553.00
802,554.00
803,553.00
804,554.00
805,554.00
806,554.00
807,554.00
808,553.00
809,553.00
810,554.00
811,554.00
812,554.00
813,554.00
814,554.00
815,554.00
816,554.00
817,554.00
818,553.00
819,553.00
820,553.00
821,554.00
822,554.00
823,554.00
824,554.00
825,554.00
826,554.00
827,554.00
828,555.00
829,554.00
830,554.00
831,554.00
832,553.00
833,554.00
834,554.00
835,553.00
836,554.00
837,554.00
838,554.00
839,554.00
840,554.00
841,554.00
842,554.00
843,554.00
844,554.00
845,554.00
846,554.00
847,554.00
848,554.00
849,553.00
850,554.00
851,553.00
852,553.00
853,553.00
854,553.00
855,554.00
856,554.00
857,554.00
858,553.00
859,554.00
860,553.00
861,554.00
862,553.00
863,553.00
864,554.00
865,554.00
866,554.00
867,553.00
868,553.00
869,554.00
870,554.00
871,554.00
872,553.00
873,553.00
874,554.00
875,554.00
876,554.00
877,553.00
878,554.00
879,553.00
880,554.00
881,553.00
882,554.00
883,553.00
884,553.00
885,554.00
886,553.00
887,553.00
888,554.00
889,553.00
890,553.00
891,552.00
892,554.00
893,554.00
894,553.00
895,553.00
896,553.00
897,553.00
898,553.00
899,552.00
900,553.00
901,553.00
902,553.00
903,553.00
904,553.00
905,553.00
906,553.00
907,553.00
908,553.00
909,553.00
910,553.00
911,553.00
912,553.00
913,553.00
914,553.00
915,553.00
916,551.00
917,553.00
918,553.00
919,553.00
920,553.00
921,553.00
922,553.00
923,553.00
924,552.00
925,553.00
926,553.00
927,553.00
928,553.00
929,553.00
930,553.00
931,552.00
932,553.00
933,553.00
934,553.00
935,553.00
936,553.00
937,553.00
938,554.00
939,553.00
940,553.00
941,553.00
942,553.00
943,553.00
944,553.00
945,553.00
946,553.00
947,553.00
948,553.00
949,553.00
950,553.00
951,553.00
952,553.00
953,552.00
954,553.00
955,554.00
956,553.00
957,553.00
958,553.00
959,554.00
960,554.00
961,553.00
962,554.00
963,554.00
964,554.00
965,553.00
966,549.00
967,553.00
968,553.00
969,553.00
970,553.00
971,553.00
972,553.00
973,553.00
974,553.00
975,554.00
976,553.00
977,553.00
978,553.00
979,553.00
980,554.00
981,552.00
982,554.00
983,554.00
984,554.00
985,554.00
986,553.00
987,554.00
988,553.00
989,554.00
990,553.00
991,553.00
992,553.00
993,553.00
994,554.00
995,553.00
996,554.00
997,554.00
998,554.00
999,554.00
1000,554.00
1001,554.00
1002,554.00
1003,554.00
1004,556.00
1005,557.00
1006,556.00
1007,559.00
1008,558.00
1009,560.00
1010,559.00
1011,560.00
1012,557.00
1013,561.00
1014,558.00
1015,558.00
1016,554.00
1017,556.00
1018,554.00
1019,558.00
1020,555.00
1021,559.00
1022,553.00
1023,556.00
1024,552.00
1025,559.00
1026,557.00
1027,556.00
1028,558.00
1029,556.00
1030,555.00
1031,561.00
1032,558.00
1033,552.00
1034,554.00
1035,560.00
1036,555.00
1037,560.00
1038,555.00
1039,558.00
1040,554.00
1041,563.00
1042,553.00
1043,555.00
1044,559.00
1045,560.00
1046,563.00
1047,567.00
1048,564.00
1049,565.00
1050,563.00
1051,567.00
1052,560.00
1053,559.00
1054,565.00
1055,573.00
1056,574.00
1057,589.00
1058,588.00
1059,584.00
1060,590.00
1061,592.00
1062,599.00
1063,605.00
1064,607.00
1065,612.00
1066,607.00
1067,613.00
1068,619.00
1069,625.00
1070,627.00
1071,640.00
1072,645.00
1073,654.00
1074,646.00
1075,650.00
1076,658.00
1077,664.00
1078,667.00
1079,670.00
1080,672.00
1081,675.00
1082,679.00
1083,689.00
1084,686.00
1085,698.00
1086,703.00
1087,717.00
1088,712.00
1089,717.00
1090,711.00
1091,718.00
1092,724.00
1093,732.00
1094,747.00
1095,754.00
1096,760.00
1097,761.00
1098,765.00
1099,773.00
1100,774.00
1101,772.00
1102,767.00
1103,768.00
1104,763.00
1105,772.00
1106,763.00
1107,764.00
1108,766.00
1109,773.00
1110,768.00
1111,770.00
1112,773.00
1113,767.00
1114,769.00
1115,764.00
1116,761.00
1117,767.00
1118,758.00
1119,760.00
1120,751.00
1121,755.00
1122,755.00
1123,755.00
1124,750.00
1125,750.00
1126,754.00
1127,752.00
1128,746.00
1129,730.00
1130,740.00
1131,739.00
1132,736.00
1133,735.00
1134,726.00
1135,729.00
1136,726.00
1137,725.00
1138,720.00
1139,719.00
1140,721.00
1141,720.00
1142,717.00
1143,718.00
1144,715.00
1145,714.00
1146,707.00
1147,710.00
1148,701.00
1149,704.00
1150,699.00
1151,696.00
1152,694.00
1153,694.00
1154,692.00
1155,688.00
1156,684.00
1157,682.00
1158,687.00
1159,686.00
1160,679.00
1161,678.00
1162,679.00
1163,682.00
1164,679.00
1165,674.00
1166,671.00
1167,670.00
1168,672.00
1169,674.00
1170,672.00
1171,664.00
1172,669.00
1173,671.00
1174,666.00
1175,668.00
1176,664.00
1177,668.00
1178,663.00
1179,667.00
1180,663.00
1181,665.00
1182,664.00
1183,659.00
1184,661.00
1185,662.00
1186,664.00
1187,662.00
1188,662.00
1189,658.00
1190,661.00
1191,664.00
1192,657.00
1193,660.00
1194,656.00
1195,662.00
1196,654.00
1197,657.00
1198,652.00
1199,657.00
1200,656.00
1201,658.00
1202,653.00
1203,653.00
1204,653.00
1205,658.00
1206,651.00
1207,653.00
1208,652.00
1209,656.00
1210,654.00
1211,649.00
1212,649.00
1213,655.00
1214,650.00
1215,650.00
1216,647.00
1217,654.00
1218,653.00
1219,649.00
1220,647.00
1221,651.00
1222,648.00
1223,652.00
1224,646.00
1225,648.00
1226,645.00
1227,653.00
1228,648.00
1229,649.00
1230,647.00
1231,648.00
1232,652.00
1233,645.00
1234,648.00
1235,646.00
1236,649.00
1237,645.00
1238,644.00
1239,647.00
1240,649.00
1241,647.00
1242,647.00
1243,646.00
1244,648.00
1245,647.00
1246,647.00
1247,630.00
1248,644.00
1249,647.00
1250,654.00
1251,653.00
1252,663.00
1253,667.00
1254,665.00
1255,665.00
1256,661.00
1257,665.00
1258,664.00
1259,674.00
1260,683.00
1261,687.00
1262,695.00
1263,696.00
1264,697.00
1265,692.00
1266,694.00
1267,697.00
1268,695.00
1269,696.00
1270,691.00
1271,690.00
1272,696.00
1273,696.00
1274,698.00
1275,705.00
1276,709.00
1277,710.00
1278,710.00
1279,708.00
1280,715.00
1281,715.00
1282,707.00
1283,708.00
1284,714.00
1285,722.00
1286,723.00
1287,724.00
1288,722.00
1289,725.00
1290,728.00
1291,724.00
1292,726.00
1293,728.00
1294,737.00
1295,737.00
1296,743.00
1297,737.00
1298,737.00
1299,740.00
1300,744.00
1301,744.00
1302,744.00
1303,748.00
1304,746.00
1305,758.00
1306,783.00
1307,792.00
1308,798.00
1309,802.00
1310,800.00
1311,802.00
1312,807.00
1313,805.00
1314,800.00
1315,792.00
1316,794.00
1317,804.00
1318,792.00
1319,795.00
1320,788.00
1321,793.00
1322,796.00
1323,789.00
1324,789.00
1325,785.00
1326,792.00
1327,789.00
1328,792.00
1329,785.00
1330,785.00
1331,791.00
1332,788.00
1333,789.00
1334,782.00
1335,789.00
1336,785.00
1337,781.00
1338,777.00
1339,776.00
1340,772.00
1341,773.00
1342,772.00
1343,770.00
1344,771.00
1345,767.00
1346,772.00
1347,783.00
1348,782.00
1349,781.00
1350,781.00
1351,781.00
1352,773.00
1353,775.00
1354,775.00
1355,768.00
1356,776.00
1357,769.00
1358,777.00
1359,773.00
1360,770.00
1361,771.00
1362,770.00
1363,775.00
1364,767.00
1365,764.00
1366,763.00
1367,764.00
1368,763.00
1369,755.00
1370,757.00
1371,755.00
1372,763.00
1373,756.00
1374,751.00
1375,749.00
1376,745.00
1377,740.00
1378,740.00
1379,734.00
1380,737.00
1381,728.00
1382,731.00
1383,716.00
1384,720.00
1385,723.00
1386,722.00
1387,713.00
1388,712.00
1389,713.00
1390,717.00
1391,709.00
1392,705.00
1393,702.00
1394,698.00
1395,703.00
1396,697.00
1397,693.00
1398,691.00
1399,690.00
1400,681.00
1401,676.00
1402,683.00
1403,696.00
1404,685.00
1405,676.00
1406,685.00
1407,678.00
1408,676.00
1409,680.00
1410,681.00
1411,679.00
1412,678.00
1413,679.00
1414,673.00
1415,674.00
1416,676.00
1417,674.00
1418,671.00
1419,671.00
1420,672.00
1421,665.00
1422,671.00
1423,668.00
1424,670.00
1425,667.00
1426,663.00
1427,669.00
1428,665.00
1429,666.00
1430,660.00
1431,663.00
1432,664.00
1433,664.00
1434,663.00
1435,660.00
1436,663.00
1437,660.00
1438,663.00
1439,660.00
1440,659.00
1441,664.00
1442,659.00
1443,661.00
1444,656.00
1445,653.00
1446,661.00
1447,658.00
1448,658.00
1449,656.00
1450,660.00
1451,649.00
1452,656.00
1453,652.00
1454,655.00
1455,658.00
1456,655.00
1457,655.00
1458,660.00
1459,657.00
1460,653.00
1461,653.00
1462,654.00
1463,652.00
1464,656.00
1465,653.00
1466,656.00
1467,655.00
1468,651.00
1469,658.00
1470,655.00
1471,653.00
1472,659.00
1473,661.00
1474,666.00
1475,653.00
1476,664.00
1477,671.00
1478,669.00
1479,670.00
1480,669.00
1481,673.00
1482,675.00
1483,676.00
1484,676.00
1485,673.00
1486,677.00
1487,676.00
1488,685.00
1489,682.00
1490,681.00
1491,692.00
1492,685.00
1493,688.00
1494,681.00
1495,688.00
1496,694.00
1497,695.00
1498,692.00
1499,688.00
1500,693.00
1501,695.00
1502,694.00
1503,691.00
1504,694.00
1505,703.00
1506,701.00
1507,696.00
1508,693.00
1509,701.00
1510,702.00
1511,710.00
1512,713.00
1513,715.00
1514,725.00
1515,729.00
1516,736.00
1517,740.00
1518,737.00
1519,737.00
1520,750.00
1521,755.00
1522,754.00
1523,762.00
1524,766.00
1525,759.00
1526,751.00
1527,755.00
1528,752.00
1529,754.00
1530,744.00
1531,752.00
1532,747.00
1533,749.00
1534,751.00
1535,746.00
1536,752.00
1537,745.00
1538,747.00
1539,752.00
1540,745.00
1541,745.00
1542,748.00
1543,749.00
1544,748.00
1545,753.00
1546,754.00
1547,751.00
1548,749.00
1549,749.00
1550,749.00
1551,746.00
1552,747.00
1553,747.00
1554,744.00
1555,744.00
1556,746.00
1557,748.00
1558,743.00
1559,746.00
1560,740.00
1561,743.00
1562,747.00
1563,742.00
1564,744.00
1565,739.00
1566,739.00
1567,741.00
1568,740.00
1569,735.00
1570,741.00
1571,741.00
1572,731.00
1573,733.00
1574,728.00
1575,729.00
1576,727.00
1577,726.00
1578,725.00
1579,719.00
1580,723.00
1581,719.00
1582,711.00
1583,712.00
1584,711.00
1585,711.00
1586,710.00
1587,710.00
1588,709.00
1589,714.00
1590,712.00
1591,708.00
1592,702.00
1593,702.00
1594,703.00
1595,703.00
1596,706.00
1597,700.00
1598,698.00
1599,693.00
1600,694.00
1601,692.00
1602,692.00
1603,695.00
1604,694.00
1605,687.00
1606,685.00
1607,688.00
1608,683.00
1609,683.00
1610,683.00
1611,683.00
1612,683.00
1613,672.00
1614,677.00
1615,673.00
1616,669.00
1617,670.00
1618,673.00
1619,662.00
1620,665.00
1621,663.00
1622,662.00
1623,658.00
1624,653.00
1625,650.00
1626,649.00
1627,646.00
1628,648.00
1629,644.00
1630,640.00
1631,638.00
1632,643.00
1633,637.00
1634,637.00
1635,630.00
1636,632.00
1637,633.00
1638,625.00
1639,625.00
1640,624.00
1641,626.00
1642,626.00
1643,623.00
1644,624.00
1645,622.00
1646,626.00
1647,621.00
1648,621.00
1649,618.00
1650,620.00
1651,621.00
1652,619.00
1653,618.00
1654,620.00
1655,621.00
1656,620.00
1657,621.00
1658,616.00
1659,616.00
1660,619.00
1661,619.00
1662,619.00
1663,618.00
1664,620.00
1665,618.00
1666,616.00
1667,614.00
1668,615.00
1669,616.00
1670,614.00
1671,615.00
1672,612.00
1673,612.00
1674,615.00
1675,613.00
1676,611.00
1677,611.00
1678,609.00
1679,612.00
1680,612.00
1681,610.00
1682,611.00
1683,609.00
1684,611.00
1685,609.00
1686,601.00
1687,612.00
1688,610.00
1689,610.00
1690,608.00
1691,608.00
1692,610.00
1693,611.00
1694,611.00
1695,610.00
1696,606.00
1697,611.00
1698,610.00
1699,611.00
1700,607.00
1701,607.00
1702,610.00
1703,610.00
1704,606.00
1705,608.00
1706,610.00
1707,610.00
1708,608.00
1709,611.00
1710,614.00
1711,614.00
1712,618.00
1713,618.00
1714,614.00
1715,613.00
1716,618.00
1717,624.00
1718,636.00
1719,643.00
1720,652.00
1721,663.00
1722,661.00
1723,665.00
1724,662.00
1725,664.00
1726,659.00
1727,673.00
1728,681.00
1729,681.00
1730,679.00
1731,680.00
1732,676.00
1733,675.00
1734,684.00
1735,691.00
1736,690.00
1737,684.00
1738,684.00
1739,687.00
1740,684.00
1741,685.00
1742,683.00
1743,681.00
1744,684.00
1745,684.00
1746,695.00
1747,693.00
1748,698.00
1749,695.00
1750,701.00
1751,691.00
1752,696.00
1753,692.00
1754,693.00
1755,692.00
1756,689.00
1757,688.00
1758,688.00
1759,683.00
1760,693.00
1761,690.00
1762,689.00
1763,693.00
1764,703.00
1765,702.00
1766,701.00
1767,697.00
1768,698.00
1769,697.00
1770,697.00
1771,696.00
1772,693.00
1773,691.00
1774,696.00
1775,694.00
1776,694.00
1777,698.00
1778,693.00
1779,694.00
1780,692.00
1781,694.00
1782,694.00
1783,691.00
1784,695.00
1785,692.00
1786,694.00
1787,692.00
1788,696.00
1789,696.00
1790,693.00
1791,692.00
1792,693.00
1793,690.00
1794,689.00
1795,690.00
1796,690.00
1797,691.00
1798,686.00
1799,686.00
1800,688.00
1801,683.00
1802,682.00
1803,686.00
1804,686.00
1805,679.00
1806,682.00
1807,680.00
1808,684.00
1809,681.00
1810,675.00
1811,677.00
1812,673.00
1813,677.00
1814,679.00
1815,670.00
1816,672.00
1817,674.00
1818,671.00
1819,665.00
1820,667.00
1821,666.00
1822,668.00
1823,667.00
1824,663.00
1825,666.00
1826,664.00
1827,657.00
1828,656.00
1829,653.00
1830,655.00
1831,647.00
1832,655.00
1833,648.00
1834,645.00
1835,643.00
1836,646.00
1837,642.00
1838,642.00
1839,633.00
1840,639.00
1841,641.00
1842,639.00
1843,639.00
1844,636.00
1845,634.00
1846,635.00
1847,634.00
1848,631.00
1849,629.00
1850,627.00
1851,625.00
1852,623.00
1853,623.00
1854,622.00
1855,618.00
1856,622.00
1857,623.00
1858,618.00
1859,622.00
1860,618.00
1861,618.00
1862,611.00
1863,612.00
1864,610.00
1865,612.00
1866,606.00
1867,605.00
1868,610.00
1869,609.00
1870,611.00
1871,610.00
1872,606.00
1873,607.00
1874,610.00
1875,612.00
1876,605.00
1877,606.00
1878,606.00
1879,608.00
1880,601.00
1881,604.00
1882,600.00
1883,601.00
1884,602.00
1885,600.00
1886,597.00
1887,599.00
1888,601.00
1889,599.00
1890,598.00
1891,595.00
1892,597.00
1893,599.00
1894,601.00
1895,596.00
1896,596.00
1897,597.00
1898,599.00
1899,596.00
1900,594.00
1901,594.00
1902,597.00
1903,597.00
1904,596.00
1905,595.00
1906,594.00
1907,592.00
1908,597.00
1909,596.00
1910,594.00
1911,594.00
1912,594.00
1913,594.00
1914,594.00
1915,596.00
1916,590.00
1917,598.00
1918,592.00
1919,595.00
1920,595.00
1921,595.00
1922,594.00
1923,600.00
1924,602.00
1925,604.00
1926,606.00
1927,608.00
1928,607.00
1929,608.00
1930,615.00
1931,618.00
1932,612.00
1933,634.00
1934,641.00
1935,647.00
1936,646.00
1937,649.00
1938,643.00
1939,650.00
1940,657.00
1941,658.00
1942,646.00
1943,655.00
1944,652.00
1945,651.00
1946,653.00
1947,654.00
1948,656.00
1949,666.00
1950,667.00
1951,665.00
1952,661.00
1953,662.00
1954,658.00
1955,662.00
1956,669.00
1957,675.00
1958,668.00
1959,668.00
1960,668.00
1961,672.00
1962,674.00
1963,675.00
1964,675.00
1965,679.00
1966,682.00
1967,681.00
1968,677.00
1969,680.00
1970,684.00
1971,686.00
1972,675.00
1973,682.00
1974,680.00
1975,681.00
1976,670.00
1977,680.00
1978,685.00
1979,685.00
1980,687.00
1981,684.00
1982,688.00
1983,684.00
1984,685.00
1985,685.00
1986,682.00
1987,689.00
1988,692.00
1989,693.00
1990,693.00
1991,694.00
1992,696.00
1993,701.00
1994,701.00
1995,702.00
1996,703.00
1997,696.00
1998,693.00
1999,697.00
2000,697.00
2001,695.00
2002,692.00
2003,697.00
2004,695.00
2005,702.00
2006,694.00
2007,695.00
2008,691.00
2009,695.00
2010,695.00
2011,691.00
2012,691.00
2013,692.00
2014,693.00
2015,691.00
2016,691.00
2017,692.00
2018,691.00
2019,692.00
2020,692.00
2021,687.00
2022,692.00
2023,690.00
2024,692.00
2025,692.00
2026,689.00
2027,680.00
2028,685.00
2029,684.00
2030,683.00
2031,677.00
2032,676.00
2033,673.00
2034,674.00
2035,666.00
2036,667.00
2037,659.00
2038,663.00
2039,658.00
2040,653.00
2041,645.00
2042,641.00
2043,635.00
2044,637.00
2045,638.00
2046,632.00
2047,629.00
2048,624.00
2049,622.00
2050,624.00
2051,619.00
2052,621.00
2053,620.00
2054,622.00
2055,617.00
2056,618.00
2057,624.00
2058,638.00
2059,652.00
2060,665.00
2061,674.00
2062,680.00
2063,692.00
2064,695.00
2065,701.00
2066,715.00
2067,742.00
2068,780.00
2069,794.00
2070,800.00
2071,804.00
2072,813.00
2073,817.00
2074,818.00
2075,814.00
2076,814.00
2077,813.00
2078,815.00
2079,809.00
2080,811.00
2081,802.00
2082,798.00
2083,803.00
2084,805.00
2085,803.00
2086,800.00
2087,799.00
2088,805.00
2089,802.00
2090,808.00
2091,800.00
2092,799.00
2093,817.00
2094,828.00
2095,829.00
2096,831.00
2097,831.00
2098,826.00
2099,828.00
2100,819.00
2101,821.00
2102,814.00
2103,817.00
2104,809.00
2105,802.00
2106,800.00
2107,799.00
2108,799.00
2109,800.00
2110,800.00
2111,789.00
2112,780.00
2113,779.00
2114,772.00
2115,765.00
2116,759.00
2117,753.00
2118,751.00
2119,748.00
2120,745.00
2121,741.00
2122,743.00
2123,743.00
2124,738.00
2125,740.00
2126,734.00
2127,729.00
2128,729.00
2129,717.00
2130,721.00
2131,714.00
2132,709.00
2133,707.00
2134,705.00
2135,706.00
2136,704.00
2137,702.00
2138,704.00
2139,703.00
2140,694.00
2141,701.00
2142,696.00
2143,697.00
2144,689.00
2145,681.00
2146,682.00
2147,676.00
2148,676.00
2149,675.00
2150,672.00
2151,674.00
2152,670.00
2153,671.00
2154,667.00
2155,670.00
2156,664.00
2157,670.00
2158,667.00
2159,668.00
2160,658.00
2161,655.00
2162,652.00
2163,652.00
2164,650.00
2165,646.00
2166,648.00
2167,648.00
2168,652.00
2169,645.00
2170,646.00
2171,646.00
2172,645.00
2173,643.00
2174,644.00
2175,642.00
2176,640.00
2177,638.00
2178,637.00
2179,643.00
2180,639.00
2181,639.00
2182,639.00
2183,647.00
2184,640.00
2185,639.00
2186,641.00
2187,638.00
2188,638.00
2189,639.00
2190,635.00
2191,632.00
2192,636.00
2193,635.00
2194,642.00
2195,635.00
2196,634.00
2197,637.00
2198,632.00
2199,641.00
2200,632.00
2201,626.00
2202,626.00
2203,623.00
2204,624.00
2205,621.00
2206,620.00
2207,621.00
2208,624.00
2209,621.00
2210,620.00
2211,615.00
2212,620.00
2213,616.00
2214,620.00
2215,617.00
2216,615.00
2217,616.00
2218,617.00
2219,617.00
2220,613.00
2221,615.00
2222,611.00
2223,616.00
2224,614.00
2225,614.00
2226,615.00
2227,612.00
2228,612.00
2229,613.00
2230,615.00
2231,611.00
2232,614.00
2233,614.00
2234,613.00
2235,613.00
2236,611.00
2237,610.00
2238,614.00
2239,612.00
2240,613.00
2241,612.00
2242,607.00
2243,610.00
2244,610.00
2245,613.00
2246,610.00
2247,611.00
2248,607.00
2249,607.00
2250,608.00
2251,609.00
2252,611.00
2253,609.00
2254,610.00
2255,612.00
2256,610.00
2257,609.00
2258,610.00
2259,610.00
2260,609.00
2261,612.00
2262,608.00
2263,608.00
2264,607.00
2265,612.00
2266,612.00
2267,611.00
2268,610.00
2269,609.00
2270,609.00
2271,609.00
2272,613.00
2273,609.00
2274,607.00
2275,608.00
2276,610.00
2277,611.00
2278,608.00
2279,608.00
2280,608.00
2281,609.00
2282,609.00
2283,608.00
2284,605.00
2285,609.00
2286,608.00
2287,608.00
2288,609.00
2289,608.00
2290,612.00
2291,615.00
2292,629.00
2293,630.00
2294,638.00
2295,644.00
2296,664.00
2297,680.00
2298,696.00
2299,709.00
2300,717.00
2301,724.00
2302,731.00
2303,731.00
2304,728.00
2305,737.00
2306,744.00
2307,750.00
2308,751.00
2309,747.00
2310,756.00
2311,769.00
2312,772.00
2313,765.00
2314,767.00
2315,771.00
2316,772.00
2317,773.00
2318,768.00
2319,766.00
2320,766.00
2321,759.00
2322,765.00
2323,766.00
2324,770.00
2325,767.00
2326,764.00
2327,765.00
2328,764.00
2329,762.00
2330,757.00
2331,759.00
2332,759.00
2333,760.00
2334,759.00
2335,757.00
2336,758.00
2337,757.00
2338,762.00
2339,759.00
2340,758.00
2341,756.00
2342,754.00
2343,758.00
2344,756.00
2345,749.00
2346,744.00
2347,743.00
2348,741.00
2349,740.00
2350,741.00
2351,733.00
2352,726.00
2353,732.00
2354,730.00
2355,727.00
2356,726.00
2357,728.00
2358,728.00
2359,727.00
2360,729.00
2361,723.00
2362,729.00
2363,730.00
2364,726.00
2365,728.00
2366,722.00
2367,717.00
2368,718.00
2369,715.00
2370,718.00
2371,714.00
2372,708.00
2373,707.00
2374,710.00
2375,710.00
2376,706.00
2377,707.00
2378,701.00
2379,703.00
2380,699.00
2381,700.00
2382,698.00
2383,700.00
2384,694.00
2385,695.00
2386,698.00
2387,692.00
2388,691.00
2389,689.00
2390,692.00
2391,689.00
2392,689.00
2393,689.00
2394,686.00
2395,685.00
2396,683.00
2397,693.00
2398,681.00
2399,684.00
2400,680.00
2401,684.00
2402,685.00
2403,687.00
2404,683.00
2405,688.00
2406,680.00
2407,681.00
2408,677.00
2409,674.00
2410,673.00
2411,670.00
2412,674.00
2413,671.00
2414,676.00
2415,668.00
2416,669.00
2417,672.00
2418,671.00
2419,670.00
2420,669.00
2421,669.00
2422,661.00
2423,666.00
2424,663.00
2425,662.00
2426,663.00
2427,657.00
2428,659.00
2429,657.00
2430,658.00
2431,654.00
2432,652.00
2433,652.00
2434,656.00
2435,653.00
2436,652.00
2437,646.00
2438,654.00
2439,652.00
2440,653.00
2441,650.00
2442,643.00
2443,649.00
2444,644.00
2445,646.00
2446,631.00
2447,645.00
2448,638.00
2449,640.00
2450,638.00
2451,638.00
2452,636.00
2453,631.00
2454,634.00
2455,629.00
2456,633.00
2457,624.00
2458,625.00
2459,624.00
2460,628.00
2461,625.00
2462,626.00
2463,623.00
2464,623.00
2465,622.00
2466,620.00
2467,621.00
2468,618.00
2469,617.00
2470,615.00
2471,616.00
2472,612.00
2473,611.00
2474,609.00
2475,611.00
2476,611.00
2477,608.00
2478,607.00
2479,608.00
2480,605.00
2481,608.00
2482,609.00
2483,607.00
2484,606.00
2485,608.00
2486,601.00
2487,604.00
2488,604.00
2489,601.00
2490,599.00
2491,600.00
2492,599.00
2493,603.00
2494,601.00
2495,597.00
2496,593.00
2497,599.00
2498,599.00
2499,596.00
2500,598.00
2501,594.00
2502,594.00
2503,594.00
2504,599.00
2505,594.00
2506,595.00
2507,593.00
2508,597.00
2509,593.00
2510,595.00
2511,594.00
2512,591.00
2513,590.00
2514,596.00
2515,593.00
2516,594.00
2517,593.00
2518,593.00
2519,592.00
2520,590.00
2521,593.00
2522,590.00
2523,589.00
2524,591.00
2525,592.00
2526,592.00
2527,585.00
2528,591.00
2529,588.00
2530,590.00
2531,590.00
2532,591.00
2533,588.00
2534,590.00
2535,587.00
2536,592.00
2537,591.00
2538,592.00
2539,591.00
2540,583.00
2541,587.00
2542,592.00
2543,591.00
2544,589.00
2545,585.00
2546,588.00
2547,592.00
2548,590.00
2549,590.00
2550,589.00
2551,589.00
2552,586.00
2553,593.00
2554,591.00
2555,592.00
2556,587.00
2557,590.00
2558,589.00
2559,588.00
2560,587.00
2561,588.00
2562,590.00
2563,586.00
2564,592.00
2565,592.00
2566,611.00
2567,625.00
2568,635.00
2569,645.00
2570,656.00
2571,664.00
2572,673.00
2573,680.00
2574,688.00
2575,698.00
2576,706.00
2577,707.00
2578,706.00
2579,703.00
2580,706.00
2581,705.00
2582,703.00
2583,707.00
2584,709.00
2585,706.00
2586,711.00
2587,707.00
2588,718.00
2589,716.00
2590,725.00
2591,731.00
2592,735.00
2593,743.00
2594,742.00
2595,747.00
2596,750.00
2597,755.00
2598,746.00
2599,744.00
2600,743.00
2601,746.00
2602,743.00
2603,742.00
2604,738.00
2605,741.00
2606,738.00
2607,735.00
2608,739.00
2609,734.00
2610,740.00
2611,732.00
2612,739.00
2613,734.00
2614,736.00
2615,739.00
2616,730.00
2617,732.00
2618,736.00
2619,730.00
2620,721.00
2621,720.00
2622,717.00
2623,722.00
2624,715.00
2625,716.00
2626,716.00
2627,712.00
2628,711.00
2629,709.00
2630,711.00
2631,707.00
2632,708.00
2633,705.00
2634,708.00
2635,704.00
2636,703.00
2637,697.00
2638,704.00
2639,694.00
2640,691.00
2641,689.00
2642,689.00
2643,685.00
2644,688.00
2645,685.00
2646,676.00
2647,689.00
2648,683.00
2649,685.00
2650,686.00
2651,684.00
2652,687.00
2653,678.00
2654,674.00
2655,672.00
2656,673.00
2657,670.00
2658,670.00
2659,670.00
2660,669.00
2661,663.00
2662,669.00
2663,665.00
2664,664.00
2665,665.00
2666,661.00
2667,662.00
2668,666.00
2669,666.00
2670,656.00
2671,656.00
2672,656.00
2673,656.00
2674,648.00
2675,651.00
2676,645.00
2677,647.00
2678,641.00
2679,645.00
2680,643.00
2681,642.00
2682,643.00
2683,639.00
2684,639.00
2685,638.00
2686,641.00
2687,635.00
2688,639.00
2689,639.00
2690,640.00
2691,631.00
2692,631.00
2693,627.00
2694,629.00
2695,629.00
2696,627.00
2697,629.00
2698,625.00
2699,625.00
2700,620.00
2701,625.00
2702,625.00
2703,626.00
2704,622.00
2705,622.00
2706,621.00
2707,625.00
2708,618.00
2709,617.00
2710,620.00
2711,619.00
2712,622.00
2713,619.00
2714,620.00
2715,615.00
2716,614.00
2717,609.00
2718,611.00
2719,608.00
2720,596.00
2721,604.00
2722,604.00
2723,602.00
2724,600.00
2725,601.00
2726,595.00
2727,598.00
2728,598.00
2729,599.00
2730,595.00
2731,597.00
2732,593.00
2733,598.00
2734,595.00
2735,594.00
2736,593.00
2737,590.00
2738,592.00
2739,594.00
2740,595.00
2741,590.00
2742,588.00
2743,588.00
2744,588.00
2745,589.00
2746,590.00
2747,592.00
2748,584.00
2749,586.00
2750,585.00
2751,588.00
2752,585.00
2753,582.00
2754,585.00
2755,584.00
2756,585.00
2757,580.00
2758,583.00
2759,582.00
2760,580.00
2761,584.00
2762,583.00
2763,584.00
2764,581.00
2765,580.00
2766,580.00
2767,578.00
2768,582.00
2769,577.00
2770,578.00
2771,577.00
2772,578.00
2773,578.00
2774,578.00
2775,575.00
2776,574.00
2777,579.00
2778,577.00
2779,577.00
2780,578.00
2781,576.00
2782,574.00
2783,577.00
2784,574.00
2785,576.00
2786,577.00
2787,576.00
2788,574.00
2789,576.00
2790,576.00
2791,574.00
2792,575.00
2793,571.00
2794,575.00
2795,572.00
2796,578.00
2797,573.00
2798,573.00
2799,575.00
2800,576.00
2801,573.00
2802,577.00
2803,574.00
2804,570.00
2805,572.00
2806,573.00
2807,579.00
2808,572.00
2809,577.00
2810,571.00
2811,574.00
2812,576.00
2813,578.00
2814,576.00
2815,571.00
2816,575.00
2817,572.00
2818,576.00
2819,573.00
2820,576.00
2821,574.00
2822,580.00
2823,583.00
2824,581.00
2825,587.00
2826,592.00
2827,596.00
2828,602.00
2829,606.00
2830,602.00
2831,600.00
2832,604.00
2833,621.00
2834,634.00
2835,644.00
2836,653.00
2837,651.00
2838,657.00
2839,669.00
2840,676.00
2841,688.00
2842,698.00
2843,703.00
2844,697.00
2845,712.00
2846,710.00
2847,714.00
2848,712.00
2849,714.00
2850,720.00
2851,722.00
2852,735.00
2853,744.00
2854,749.00
2855,741.00
2856,741.00
2857,744.00
2858,747.00
2859,740.00
2860,735.00
2861,740.00
2862,737.00
2863,746.00
2864,736.00
2865,739.00
2866,739.00
2867,740.00
2868,734.00
2869,739.00
2870,738.00
2871,734.00
2872,733.00
2873,733.00
2874,732.00
2875,733.00
2876,735.00
2877,725.00
2878,727.00
2879,726.00
2880,720.00
2881,721.00
2882,718.00
2883,714.00
2884,714.00
2885,708.00
2886,709.00
2887,700.00
2888,697.00
2889,698.00
2890,696.00
2891,696.00
2892,697.00
2893,693.00
2894,691.00
2895,690.00
2896,688.00
2897,683.00
2898,686.00
2899,678.00
2900,674.00
2901,670.00
2902,663.00
2903,669.00
2904,666.00
2905,668.00
2906,664.00
2907,663.00
2908,665.00
2909,663.00
2910,660.00
2911,654.00
2912,657.00
2913,654.00
2914,655.00
2915,654.00
2916,649.00
2917,647.00
2918,646.00
2919,647.00
2920,645.00
2921,647.00
2922,643.00
2923,641.00
2924,641.00
2925,645.00
2926,644.00
2927,641.00
2928,640.00
2929,644.00
2930,639.00
2931,644.00
2932,637.00
2933,636.00
2934,633.00
2935,632.00
2936,630.00
2937,625.00
2938,621.00
2939,620.00
2940,616.00
2941,616.00
2942,618.00
2943,616.00
2944,616.00
2945,615.00
2946,613.00
2947,612.00
2948,615.00
2949,613.00
2950,614.00
2951,610.00
2952,611.00
2953,609.00
2954,608.00
2955,608.00
2956,603.00
2957,605.00
2958,603.00
2959,606.00
2960,603.00
2961,604.00
2962,600.00
2963,602.00
2964,599.00
2965,604.00
2966,601.00
2967,601.00
2968,600.00
2969,604.00
2970,606.00
2971,604.00
2972,606.00
2973,603.00
2974,602.00
2975,598.00
2976,599.00
2977,593.00
2978,590.00
2979,588.00
2980,586.00
2981,585.00
2982,583.00
2983,583.00
2984,582.00
2985,582.00
2986,581.00
2987,580.00
2988,580.00
2989,580.00
2990,578.00
2991,578.00
2992,578.00
2993,578.00
2994,578.00
2995,577.00
2996,576.00
2997,576.00
2998,576.00
2999,576.00
3000,576.00
