ms,resistance
1,522.00
2,515.00
3,516.00
4,515.00
5,515.00
6,515.00
7,516.00
8,515.00
9,516.00
10,516.00
11,516.00
12,515.00
13,516.00
14,515.00
15,517.00
16,514.00
17,518.00
18,518.00
19,518.00
20,514.00
21,517.00
22,518.00
23,514.00
24,517.00
25,519.00
26,519.00
27,514.00
28,517.00
29,516.00
30,519.00
31,517.00
32,516.00
33,518.00
34,515.00
35,518.00
36,516.00
37,512.00
38,515.00
39,515.00
40,516.00
41,515.00
42,516.00
43,515.00
44,519.00
45,518.00
46,518.00
47,517.00
48,518.00
49,516.00
50,516.00
51,519.00
52,519.00
53,519.00
54,514.00
55,518.00
56,516.00
57,516.00
58,516.00
59,516.00
60,518.00
61,516.00
62,515.00
63,515.00
64,516.00
65,515.00
66,515.00
67,516.00
68,516.00
69,516.00
70,515.00
71,519.00
72,518.00
73,518.00
74,517.00
75,519.00
76,516.00
77,515.00
78,517.00
79,516.00
80,517.00
81,517.00
82,516.00
83,517.00
84,517.00
85,517.00
86,516.00
87,517.00
88,516.00
89,517.00
90,517.00
91,516.00
92,517.00
93,516.00
94,516.00
95,516.00
96,517.00
97,516.00
98,516.00
99,516.00
100,516.00
101,516.00
102,515.00
103,515.00
104,515.00
105,515.00
106,516.00
107,516.00
108,516.00
109,515.00
110,515.00
111,516.00
112,516.00
113,515.00
114,516.00
115,515.00
116,516.00
117,516.00
118,516.00
119,516.00
120,516.00
121,516.00
122,516.00
123,516.00
124,516.00
125,516.00
126,515.00
127,516.00
128,516.00
129,516.00
130,516.00
131,516.00
132,516.00
133,515.00
134,516.00
135,516.00
136,515.00
137,516.00
138,516.00
139,515.00
140,515.00
141,516.00
142,516.00
143,516.00
144,516.00
145,516.00
146,515.00
147,515.00
148,516.00
149,516.00
150,516.00
151,516.00
152,515.00
153,516.00
154,516.00
155,516.00
156,516.00
157,516.00
158,516.00
159,516.00
160,515.00
161,516.00
162,516.00
163,516.00
164,513.00
165,516.00
166,516.00
167,516.00
168,516.00
169,516.00
170,516.00
171,516.00
172,516.00
173,516.00
174,516.00
175,516.00
176,516.00
177,515.00
178,516.00
179,516.00
180,516.00
181,516.00
182,516.00
183,516.00
184,516.00
185,516.00
186,516.00
187,516.00
188,516.00
189,516.00
190,516.00
191,516.00
192,515.00
193,516.00
194,516.00
195,516.00
196,516.00
197,516.00
198,516.00
199,516.00
200,516.00
201,516.00
202,515.00
203,516.00
204,516.00
205,516.00
206,516.00
207,516.00
208,516.00
209,516.00
210,516.00
211,516.00
212,516.00
213,516.00
214,516.00
215,516.00
216,516.00
217,516.00
218,515.00
219,516.00
220,516.00
221,516.00
222,516.00
223,516.00
224,516.00
225,516.00
226,515.00
227,516.00
228,516.00
229,516.00
230,516.00
231,515.00
232,515.00
233,516.00
234,516.00
235,515.00
236,515.00
237,515.00
238,515.00
239,515.00
240,516.00
241,516.00
242,516.00
243,516.00
244,516.00
245,515.00
246,516.00
247,515.00
248,515.00
249,516.00
250,516.00
251,515.00
252,515.00
253,516.00
254,516.00
255,516.00
256,516.00
257,516.00
258,516.00
259,516.00
260,516.00
261,516.00
262,516.00
263,516.00
264,516.00
265,516.00
266,516.00
267,516.00
268,515.00
269,516.00
270,516.00
271,515.00
272,515.00
273,512.00
274,516.00
275,516.00
276,516.00
277,516.00
278,515.00
279,516.00
280,515.00
281,515.00
282,516.00
283,516.00
284,516.00
285,516.00
286,516.00
287,516.00
288,516.00
289,513.00
290,516.00
291,515.00
292,516.00
293,516.00
294,516.00
295,516.00
296,516.00
297,515.00
298,516.00
299,516.00
300,515.00
301,515.00
302,516.00
303,515.00
304,515.00
305,516.00
306,516.00
307,516.00
308,515.00
309,516.00
310,516.00
311,516.00
312,515.00
313,515.00
314,515.00
315,515.00
316,516.00
317,516.00
318,515.00
319,516.00
320,516.00
321,515.00
322,516.00
323,516.00
324,516.00
325,516.00
326,516.00
327,516.00
328,516.00
329,516.00
330,516.00
331,516.00
332,516.00
333,516.00
334,515.00
335,516.00
336,515.00
337,516.00
338,515.00
339,516.00
340,512.00
341,516.00
342,516.00
343,516.00
344,515.00
345,515.00
346,516.00
347,516.00
348,516.00
349,516.00
350,516.00
351,515.00
352,515.00
353,516.00
354,516.00
355,516.00
356,516.00
357,516.00
358,516.00
359,516.00
360,515.00
361,516.00
362,515.00
363,515.00
364,515.00
365,516.00
366,515.00
367,516.00
368,515.00
369,516.00
370,516.00
371,516.00
372,515.00
373,516.00
374,514.00
375,515.00
376,515.00
377,516.00
378,516.00
379,515.00
380,516.00
381,516.00
382,516.00
383,516.00
384,515.00
385,516.00
386,516.00
387,515.00
388,515.00
389,515.00
390,516.00
391,515.00
392,515.00
393,516.00
394,515.00
395,515.00
396,516.00
397,516.00
398,516.00
399,513.00
400,516.00
401,516.00
402,516.00
403,515.00
404,516.00
405,516.00
406,516.00
407,515.00
408,515.00
409,516.00
410,515.00
411,515.00
412,516.00
413,516.00
414,516.00
415,515.00
416,516.00
417,516.00
418,515.00
419,516.00
420,515.00
421,516.00
422,516.00
423,515.00
424,516.00
425,516.00
426,515.00
427,515.00
428,516.00
429,516.00
430,516.00
431,516.00
432,516.00
433,512.00
434,516.00
435,515.00
436,516.00
437,516.00
438,516.00
439,515.00
440,516.00
441,516.00
442,516.00
443,516.00
444,516.00
445,516.00
446,516.00
447,516.00
448,516.00
449,516.00
450,516.00
451,515.00
452,515.00
453,516.00
454,516.00
455,516.00
456,516.00
457,516.00
458,512.00
459,516.00
460,515.00
461,516.00
462,515.00
463,515.00
464,515.00
465,516.00
466,516.00
467,515.00
468,516.00
469,516.00
470,516.00
471,515.00
472,516.00
473,516.00
474,516.00
475,515.00
476,515.00
477,516.00
478,516.00
479,516.00
480,515.00
481,516.00
482,516.00
483,515.00
484,516.00
485,516.00
486,516.00
487,515.00
488,516.00
489,516.00
490,515.00
491,515.00
492,515.00
493,516.00
494,516.00
495,516.00
496,516.00
497,515.00
498,515.00
499,516.00
500,512.00
501,516.00
502,516.00
503,515.00
504,515.00
505,516.00
506,516.00
507,515.00
508,515.00
509,516.00
510,515.00
511,515.00
512,516.00
513,515.00
514,515.00
515,516.00
516,516.00
517,516.00
518,514.00
519,516.00
520,515.00
521,515.00
522,516.00
523,515.00
524,516.00
525,516.00
526,515.00
527,515.00
528,516.00
529,515.00
530,515.00
531,516.00
532,516.00
533,516.00
534,515.00
535,516.00
536,516.00
537,515.00
538,515.00
539,516.00
540,516.00
541,516.00
542,515.00
543,515.00
544,516.00
545,516.00
546,516.00
547,516.00
548,516.00
549,516.00
550,515.00
551,516.00
552,515.00
553,516.00
554,515.00
555,516.00
556,515.00
557,516.00
558,515.00
559,516.00
560,515.00
561,516.00
562,515.00
563,516.00
564,516.00
565,516.00
566,515.00
567,516.00
568,516.00
569,516.00
570,515.00
571,516.00
572,516.00
573,515.00
574,516.00
575,515.00
576,516.00
577,516.00
578,515.00
579,515.00
580,516.00
581,515.00
582,515.00
583,515.00
584,516.00
585,515.00
586,515.00
587,515.00
588,515.00
589,516.00
590,515.00
591,516.00
592,516.00
593,516.00
594,515.00
595,515.00
596,516.00
597,516.00
598,516.00
599,515.00
600,516.00
601,516.00
602,515.00
603,515.00
604,516.00
605,516.00
606,516.00
607,516.00
608,516.00
609,515.00
610,515.00
611,516.00
612,516.00
613,516.00
614,515.00
615,516.00
616,515.00
617,516.00
618,515.00
619,516.00
620,516.00
621,516.00
622,516.00
623,516.00
624,516.00
625,515.00
626,515.00
627,516.00
628,516.00
629,515.00
630,515.00
631,516.00
632,516.00
633,515.00
634,516.00
635,515.00
636,516.00
637,516.00
638,516.00
639,514.00
640,515.00
641,516.00
642,516.00
643,516.00
644,516.00
645,516.00
646,515.00
647,515.00
648,515.00
649,516.00
650,515.00
651,512.00
652,516.00
653,516.00
654,515.00
655,516.00
656,516.00
657,516.00
658,515.00
659,516.00
660,516.00
661,515.00
662,515.00
663,516.00
664,516.00
665,515.00
666,515.00
667,516.00
668,516.00
669,515.00
670,515.00
671,515.00
672,516.00
673,515.00
674,515.00
675,516.00
676,516.00
677,516.00
678,515.00
679,515.00
680,516.00
681,515.00
682,515.00
683,516.00
684,516.00
685,516.00
686,515.00
687,516.00
688,516.00
689,515.00
690,516.00
691,516.00
692,515.00
693,516.00
694,513.00
695,516.00
696,516.00
697,515.00
698,516.00
699,516.00
700,515.00
701,516.00
702,515.00
703,516.00
704,516.00
705,515.00
706,516.00
707,516.00
708,516.00
709,515.00
710,516.00
711,516.00
712,516.00
713,515.00
714,516.00
715,516.00
716,516.00
717,515.00
718,515.00
719,516.00
720,516.00
721,515.00
722,516.00
723,516.00
724,516.00
725,515.00
726,516.00
727,516.00
728,516.00
729,516.00
730,516.00
731,516.00
732,516.00
733,515.00
734,516.00
735,516.00
736,516.00
737,515.00
738,515.00
739,515.00
740,516.00
741,515.00
742,516.00
743,515.00
744,515.00
745,515.00
746,515.00
747,515.00
748,515.00
749,515.00
750,516.00
751,515.00
752,512.00
753,515.00
754,516.00
755,516.00
756,515.00
757,515.00
758,516.00
759,516.00
760,516.00
761,515.00
762,515.00
763,515.00
764,515.00
765,515.00
766,515.00
767,515.00
768,515.00
769,515.00
770,516.00
771,515.00
772,516.00
773,515.00
774,515.00
775,516.00
776,516.00
777,515.00
778,515.00
779,516.00
780,515.00
781,516.00
782,516.00
783,516.00
784,515.00
785,515.00
786,515.00
787,516.00
788,516.00
789,514.00
790,515.00
791,516.00
792,516.00
793,515.00
794,515.00
795,516.00
796,515.00
797,515.00
798,515.00
799,516.00
800,516.00
801,515.00
802,515.00
803,516.00
804,516.00
805,515.00
806,515.00
807,516.00
808,515.00
809,515.00
810,515.00
811,516.00
812,516.00
813,516.00
814,515.00
815,515.00
816,515.00
817,515.00
818,515.00
819,515.00
820,516.00
821,515.00
822,516.00
823,516.00
824,516.00
825,516.00
826,516.00
827,515.00
828,516.00
829,516.00
830,515.00
831,515.00
832,515.00
833,515.00
834,516.00
835,516.00
836,515.00
837,516.00
838,516.00
839,515.00
840,515.00
841,515.00
842,516.00
843,515.00
844,516.00
845,516.00
846,516.00
847,515.00
848,515.00
849,516.00
850,516.00
851,516.00
852,516.00
853,515.00
854,516.00
855,515.00
856,516.00
857,516.00
858,516.00
859,516.00
860,515.00
861,516.00
862,516.00
863,516.00
864,516.00
865,515.00
866,516.00
867,516.00
868,515.00
869,516.00
870,515.00
871,515.00
872,516.00
873,516.00
874,516.00
875,516.00
876,515.00
877,515.00
878,515.00
879,516.00
880,515.00
881,515.00
882,516.00
883,516.00
884,515.00
885,515.00
886,516.00
887,516.00
888,515.00
889,514.00
890,515.00
891,516.00
892,516.00
893,516.00
894,516.00
895,516.00
896,515.00
897,516.00
898,516.00
899,516.00
900,516.00
901,516.00
902,516.00
903,516.00
904,516.00
905,517.00
906,516.00
907,517.00
908,516.00
909,517.00
910,516.00
911,516.00
912,516.00
913,516.00
914,516.00
915,516.00
916,516.00
917,516.00
918,516.00
919,516.00
920,516.00
921,516.00
922,516.00
923,516.00
924,516.00
925,516.00
926,517.00
927,516.00
928,516.00
929,516.00
930,516.00
931,516.00
932,516.00
933,517.00
934,516.00
935,516.00
936,516.00
937,517.00
938,517.00
939,515.00
940,516.00
941,516.00
942,516.00
943,516.00
944,516.00
945,517.00
946,516.00
947,516.00
948,516.00
949,517.00
950,516.00
951,517.00
952,517.00
953,517.00
954,516.00
955,516.00
956,516.00
957,517.00
958,516.00
959,516.00
960,516.00
961,517.00
962,517.00
963,517.00
964,516.00
965,516.00
966,517.00
967,517.00
968,517.00
969,517.00
970,517.00
971,517.00
972,516.00
973,517.00
974,517.00
975,517.00
976,517.00
977,517.00
978,517.00
979,517.00
980,517.00
981,517.00
982,517.00
983,517.00
984,517.00
985,517.00
986,518.00
987,514.00
988,518.00
989,517.00
990,518.00
991,517.00
992,517.00
993,517.00
994,517.00
995,518.00
996,517.00
997,518.00
998,517.00
999,517.00
1000,519.00
1001,518.00
1002,519.00
1003,518.00
1004,519.00
1005,519.00
1006,522.00
1007,522.00
1008,522.00
1009,520.00
1010,525.00
1011,527.00
1012,529.00
1013,532.00
1014,528.00
1015,530.00
1016,533.00
1017,535.00
1018,535.00
1019,542.00
1020,545.00
1021,552.00
1022,558.00
1023,563.00
1024,573.00
1025,577.00
1026,587.00
1027,598.00
1028,609.00
1029,627.00
1030,641.00
1031,659.00
1032,668.00
1033,681.00
1034,693.00
1035,707.00
1036,711.00
1037,727.00
1038,724.00
1039,738.00
1040,748.00
1041,748.00
1042,765.00
1043,766.00
1044,763.00
1045,770.00
1046,775.00
1047,777.00
1048,788.00
1049,784.00
1050,784.00
1051,788.00
1052,784.00
1053,788.00
1054,793.00
1055,785.00
1056,795.00
1057,796.00
1058,800.00
1059,794.00
1060,793.00
1061,799.00
1062,796.00
1063,796.00
1064,793.00
1065,790.00
1066,772.00
1067,781.00
1068,778.00
1069,788.00
1070,787.00
1071,781.00
1072,781.00
1073,789.00
1074,801.00
1075,803.00
1076,800.00
1077,797.00
1078,796.00
1079,791.00
1080,787.00
1081,785.00
1082,781.00
1083,781.00
1084,790.00
1085,789.00
1086,781.00
1087,777.00
1088,780.00
1089,784.00
1090,776.00
1091,785.00
1092,777.00
1093,773.00
1094,784.00
1095,784.00
1096,784.00
1097,778.00
1098,779.00
1099,788.00
1100,783.00
1101,783.00
1102,781.00
1103,780.00
1104,782.00
1105,795.00
1106,797.00
1107,791.00
1108,794.00
1109,800.00
1110,782.00
1111,788.00
1112,792.00
1113,786.00
1114,790.00
1115,798.00
1116,784.00
1117,791.00
1118,787.00
1119,784.00
1120,780.00
1121,778.00
1122,777.00
1123,778.00
1124,770.00
1125,762.00
1126,751.00
1127,750.00
1128,743.00
1129,736.00
1130,731.00
1131,731.00
1132,726.00
1133,718.00
1134,721.00
1135,718.00
1136,701.00
1137,715.00
1138,701.00
1139,696.00
1140,699.00
1141,692.00
1142,677.00
1143,677.00
1144,679.00
1145,683.00
1146,662.00
1147,664.00
1148,663.00
1149,663.00
1150,663.00
1151,654.00
1152,649.00
1153,655.00
1154,650.00
1155,647.00
1156,646.00
1157,646.00
1158,643.00
1159,641.00
1160,645.00
1161,640.00
1162,635.00
1163,647.00
1164,637.00
1165,640.00
1166,634.00
1167,632.00
1168,636.00
1169,631.00
1170,644.00
1171,634.00
1172,626.00
1173,631.00
1174,635.00
1175,633.00
1176,634.00
1177,643.00
1178,631.00
1179,625.00
1180,632.00
1181,636.00
1182,620.00
1183,628.00
1184,627.00
1185,622.00
1186,629.00
1187,629.00
1188,621.00
1189,623.00
1190,646.00
1191,635.00
1192,648.00
1193,643.00
1194,652.00
1195,657.00
1196,674.00
1197,678.00
1198,700.00
1199,702.00
1200,710.00
1201,714.00
1202,727.00
1203,726.00
1204,729.00
1205,735.00
1206,761.00
1207,750.00
1208,756.00
1209,758.00
1210,763.00
1211,770.00
1212,771.00
1213,766.00
1214,771.00
1215,767.00
1216,774.00
1217,770.00
1218,775.00
1219,774.00
1220,783.00
1221,770.00
1222,813.00
1223,767.00
1224,787.00
1225,773.00
1226,788.00
1227,782.00
1228,776.00
1229,777.00
1230,775.00
1231,776.00
1232,769.00
1233,761.00
1234,778.00
1235,777.00
1236,771.00
1237,765.00
1238,769.00
1239,765.00
1240,780.00
1241,770.00
1242,777.00
1243,775.00
1244,764.00
1245,764.00
1246,769.00
1247,762.00
1248,768.00
1249,773.00
1250,773.00
1251,791.00
1252,760.00
1253,761.00
1254,761.00
1255,751.00
1256,758.00
1257,753.00
1258,762.00
1259,765.00
1260,758.00
1261,755.00
1262,752.00
1263,753.00
1264,751.00
1265,754.00
1266,767.00
1267,757.00
1268,743.00
1269,740.00
1270,739.00
1271,737.00
1272,736.00
1273,738.00
1274,720.00
1275,714.00
1276,709.00
1277,708.00
1278,697.00
1279,695.00
1280,676.00
1281,682.00
1282,662.00
1283,672.00
1284,650.00
1285,670.00
1286,663.00
1287,641.00
1288,633.00
1289,651.00
1290,634.00
1291,634.00
1292,638.00
1293,630.00
1294,627.00
1295,629.00
1296,628.00
1297,625.00
1298,623.00
1299,608.00
1300,617.00
1301,617.00
1302,635.00
1303,621.00
1304,614.00
1305,617.00
1306,613.00
1307,625.00
1308,622.00
1309,626.00
1310,620.00
1311,611.00
1312,616.00
1313,614.00
1314,621.00
1315,621.00
1316,615.00
1317,610.00
1318,611.00
1319,611.00
1320,612.00
1321,611.00
1322,623.00
1323,609.00
1324,609.00
1325,606.00
1326,619.00
1327,607.00
1328,622.00
1329,607.00
1330,618.00
1331,614.00
1332,615.00
1333,605.00
1334,620.00
1335,608.00
1336,605.00
1337,604.00
1338,609.00
1339,606.00
1340,605.00
1341,607.00
1342,612.00
1343,608.00
1344,614.00
1345,610.00
1346,610.00
1347,615.00
1348,620.00
1349,623.00
1350,622.00
1351,641.00
1352,630.00
1353,644.00
1354,632.00
1355,658.00
1356,650.00
1357,660.00
1358,661.00
1359,668.00
1360,672.00
1361,683.00
1362,677.00
1363,678.00
1364,695.00
1365,702.00
1366,714.00
1367,729.00
1368,725.00
1369,729.00
1370,740.00
1371,744.00
1372,740.00
1373,745.00
1374,752.00
1375,750.00
1376,757.00
1377,762.00
1378,759.00
1379,768.00
1380,764.00
1381,772.00
1382,768.00
1383,762.00
1384,766.00
1385,776.00
1386,768.00
1387,773.00
1388,774.00
1389,775.00
1390,766.00
1391,757.00
1392,769.00
1393,785.00
1394,772.00
1395,770.00
1396,771.00
1397,766.00
1398,765.00
1399,769.00
1400,768.00
1401,763.00
1402,764.00
1403,771.00
1404,762.00
1405,770.00
1406,767.00
1407,771.00
1408,769.00
1409,775.00
1410,760.00
1411,778.00
1412,777.00
1413,767.00
1414,765.00
1415,765.00
1416,759.00
1417,768.00
1418,764.00
1419,759.00
1420,762.00
1421,760.00
1422,764.00
1423,764.00
1424,759.00
1425,756.00
1426,754.00
1427,766.00
1428,754.00
1429,755.00
1430,757.00
1431,755.00
1432,752.00
1433,761.00
1434,764.00
1435,753.00
1436,760.00
1437,756.00
1438,767.00
1439,755.00
1440,753.00
1441,759.00
1442,769.00
1443,754.00
1444,758.00
1445,759.00
1446,758.00
1447,752.00
1448,750.00
1449,766.00
1450,753.00
1451,754.00
1452,763.00
1453,752.00
1454,756.00
1455,763.00
1456,765.00
1457,757.00
1458,761.00
1459,758.00
1460,767.00
1461,753.00
1462,757.00
1463,754.00
1464,751.00
1465,758.00
1466,754.00
1467,760.00
1468,756.00
1469,751.00
1470,749.00
1471,755.00
1472,753.00
1473,749.00
1474,744.00
1475,739.00
1476,747.00
1477,737.00
1478,723.00
1479,730.00
1480,717.00
1481,715.00
1482,719.00
1483,708.00
1484,715.00
1485,703.00
1486,696.00
1487,690.00
1488,690.00
1489,685.00
1490,689.00
1491,678.00
1492,685.00
1493,681.00
1494,680.00
1495,669.00
1496,671.00
1497,664.00
1498,669.00
1499,659.00
1500,651.00
1501,650.00
1502,655.00
1503,648.00
1504,647.00
1505,645.00
1506,642.00
1507,639.00
1508,641.00
1509,642.00
1510,646.00
1511,628.00
1512,637.00
1513,633.00
1514,637.00
1515,632.00
1516,635.00
1517,626.00
1518,624.00
1519,634.00
1520,630.00
1521,629.00
1522,628.00
1523,629.00
1524,627.00
1525,640.00
1526,634.00
1527,638.00
1528,652.00
1529,658.00
1530,651.00
1531,664.00
1532,664.00
1533,670.00
1534,704.00
1535,688.00
1536,703.00
1537,701.00
1538,697.00
1539,692.00
1540,709.00
1541,714.00
1542,719.00
1543,727.00
1544,725.00
1545,734.00
1546,738.00
1547,736.00
1548,747.00
1549,742.00
1550,751.00
1551,757.00
1552,764.00
1553,751.00
1554,751.00
1555,768.00
1556,762.00
1557,764.00
1558,763.00
1559,755.00
1560,763.00
1561,755.00
1562,755.00
1563,753.00
1564,757.00
1565,760.00
1566,711.00
1567,765.00
1568,770.00
1569,755.00
1570,755.00
1571,774.00
1572,763.00
1573,770.00
1574,759.00
1575,763.00
1576,767.00
1577,771.00
1578,761.00
1579,759.00
1580,753.00
1581,763.00
1582,768.00
1583,752.00
1584,758.00
1585,759.00
1586,753.00
1587,745.00
1588,757.00
1589,765.00
1590,761.00
1591,759.00
1592,760.00
1593,750.00
1594,760.00
1595,759.00
1596,763.00
1597,751.00
1598,755.00
1599,759.00
1600,749.00
1601,750.00
1602,742.00
1603,742.00
1604,760.00
1605,759.00
1606,754.00
1607,749.00
1608,751.00
1609,744.00
1610,751.00
1611,754.00
1612,746.00
1613,747.00
1614,746.00
1615,741.00
1616,758.00
1617,749.00
1618,745.00
1619,746.00
1620,748.00
1621,758.00
1622,752.00
1623,749.00
1624,741.00
1625,746.00
1626,738.00
1627,738.00
1628,739.00
1629,738.00
1630,751.00
1631,738.00
1632,733.00
1633,741.00
1634,736.00
1635,729.00
1636,726.00
1637,727.00
1638,720.00
1639,716.00
1640,723.00
1641,707.00
1642,708.00
1643,702.00
1644,699.00
1645,690.00
1646,690.00
1647,684.00
1648,681.00
1649,674.00
1650,670.00
1651,669.00
1652,660.00
1653,656.00
1654,661.00
1655,644.00
1656,639.00
1657,642.00
1658,634.00
1659,637.00
1660,634.00
1661,632.00
1662,641.00
1663,623.00
1664,622.00
1665,630.00
1666,624.00
1667,633.00
1668,631.00
1669,630.00
1670,620.00
1671,618.00
1672,627.00
1673,617.00
1674,615.00
1675,621.00
1676,617.00
1677,618.00
1678,612.00
1679,613.00
1680,617.00
1681,617.00
1682,628.00
1683,635.00
1684,641.00
1685,633.00
1686,643.00
1687,642.00
1688,659.00
1689,665.00
1690,682.00
1691,664.00
1692,668.00
1693,672.00
1694,680.00
1695,681.00
1696,685.00
1697,698.00
1698,696.00
1699,701.00
1700,711.00
1701,710.00
1702,719.00
1703,725.00
1704,723.00
1705,741.00
1706,736.00
1707,750.00
1708,747.00
1709,750.00
1710,746.00
1711,744.00
1712,750.00
1713,758.00
1714,754.00
1715,757.00
1716,767.00
1717,755.00
1718,758.00
1719,757.00
1720,766.00
1721,762.00
1722,765.00
1723,764.00
1724,767.00
1725,768.00
1726,766.00
1727,760.00
1728,768.00
1729,776.00
1730,770.00
1731,771.00
1732,779.00
1733,765.00
1734,780.00
1735,781.00
1736,769.00
1737,767.00
1738,775.00
1739,774.00
1740,774.00
1741,785.00
1742,773.00
1743,765.00
1744,771.00
1745,759.00
1746,774.00
1747,775.00
1748,774.00
1749,773.00
1750,756.00
1751,766.00
1752,764.00
1753,773.00
1754,762.00
1755,762.00
1756,770.00
1757,763.00
1758,763.00
1759,764.00
1760,768.00
1761,765.00
1762,761.00
1763,753.00
1764,759.00
1765,767.00
1766,766.00
1767,760.00
1768,759.00
1769,758.00
1770,762.00
1771,770.00
1772,759.00
1773,764.00
1774,765.00
1775,766.00
1776,752.00
1777,755.00
1778,758.00
1779,767.00
1780,753.00
1781,760.00
1782,748.00
1783,752.00
1784,763.00
1785,761.00
1786,762.00
1787,770.00
1788,772.00
1789,762.00
1790,763.00
1791,765.00
1792,764.00
1793,762.00
1794,772.00
1795,764.00
1796,757.00
1797,771.00
1798,762.00
1799,758.00
1800,761.00
1801,757.00
1802,755.00
1803,751.00
1804,749.00
1805,748.00
1806,748.00
1807,738.00
1808,738.00
1809,733.00
1810,735.00
1811,737.00
1812,731.00
1813,725.00
1814,719.00
1815,718.00
1816,713.00
1817,721.00
1818,709.00
1819,709.00
1820,700.00
1821,709.00
1822,691.00
1823,700.00
1824,697.00
1825,685.00
1826,677.00
1827,683.00
1828,673.00
1829,671.00
1830,683.00
1831,670.00
1832,676.00
1833,650.00
1834,660.00
1835,655.00
1836,664.00
1837,659.00
1838,666.00
1839,657.00
1840,657.00
1841,660.00
1842,656.00
1843,658.00
1844,653.00
1845,657.00
1846,664.00
1847,652.00
1848,651.00
1849,652.00
1850,652.00
1851,649.00
1852,655.00
1853,655.00
1854,653.00
1855,661.00
1856,665.00
1857,666.00
1858,677.00
1859,673.00
1860,678.00
1861,682.00
1862,690.00
1863,696.00
1864,702.00
1865,696.00
1866,707.00
1867,700.00
1868,706.00
1869,719.00
1870,723.00
1871,726.00
1872,724.00
1873,726.00
1874,719.00
1875,739.00
1876,731.00
1877,734.00
1878,743.00
1879,739.00
1880,751.00
1881,742.00
1882,751.00
1883,752.00
1884,758.00
1885,757.00
1886,751.00
1887,762.00
1888,758.00
1889,766.00
1890,756.00
1891,757.00
1892,763.00
1893,751.00
1894,757.00
1895,759.00
1896,763.00
1897,753.00
1898,751.00
1899,765.00
1900,757.00
1901,759.00
1902,756.00
1903,758.00
1904,755.00
1905,760.00
1906,747.00
1907,763.00
1908,760.00
1909,752.00
1910,750.00
1911,750.00
1912,754.00
1913,747.00
1914,758.00
1915,749.00
1916,748.00
1917,745.00
1918,746.00
1919,745.00
1920,743.00
1921,748.00
1922,758.00
1923,745.00
1924,746.00
1925,745.00
1926,758.00
1927,752.00
1928,747.00
1929,743.00
1930,749.00
1931,742.00
1932,752.00
1933,739.00
1934,740.00
1935,745.00
1936,738.00
1937,746.00
1938,737.00
1939,737.00
1940,743.00
1941,737.00
1942,731.00
1943,731.00
1944,733.00
1945,734.00
1946,744.00
1947,735.00
1948,736.00
1949,736.00
1950,737.00
1951,735.00
1952,735.00
1953,734.00
1954,735.00
1955,741.00
1956,728.00
1957,732.00
1958,742.00
1959,734.00
1960,729.00
1961,734.00
1962,730.00
1963,732.00
1964,728.00
1965,725.00
1966,722.00
1967,718.00
1968,727.00
1969,725.00
1970,716.00
1971,717.00
1972,720.00
1973,711.00
1974,708.00
1975,708.00
1976,706.00
1977,706.00
1978,699.00
1979,694.00
1980,697.00
1981,687.00
1982,681.00
1983,679.00
1984,681.00
1985,680.00
1986,676.00
1987,680.00
1988,671.00
1989,1023.00
1990,671.00
1991,672.00
1992,666.00
1993,662.00
1994,659.00
1995,667.00
1996,654.00
1997,652.00
1998,649.00
1999,653.00
2000,644.00
2001,648.00
2002,650.00
2003,652.00
2004,643.00
2005,652.00
2006,655.00
2007,644.00
2008,643.00
2009,648.00
2010,632.00
2011,650.00
2012,644.00
2013,641.00
2014,639.00
2015,647.00
2016,638.00
2017,639.00
2018,643.00
2019,645.00
2020,650.00
2021,654.00
2022,666.00
2023,669.00
2024,664.00
2025,677.00
2026,687.00
2027,687.00
2028,690.00
2029,691.00
2030,695.00
2031,703.00
2032,707.00
2033,711.00
2034,713.00
2035,722.00
2036,719.00
2037,730.00
2038,736.00
2039,736.00
2040,728.00
2041,738.00
2042,732.00
2043,734.00
2044,736.00
2045,736.00
2046,732.00
2047,735.00
2048,740.00
2049,746.00
2050,747.00
2051,749.00
2052,741.00
2053,746.00
2054,751.00
2055,750.00
2056,742.00
2057,746.00
2058,755.00
2059,745.00
2060,740.00
2061,754.00
2062,746.00
2063,749.00
2064,752.00
2065,744.00
2066,751.00
2067,748.00
2068,749.00
2069,747.00
2070,749.00
2071,745.00
2072,746.00
2073,752.00
2074,746.00
2075,744.00
2076,739.00
2077,745.00
2078,752.00
2079,741.00
2080,743.00
2081,740.00
2082,737.00
2083,749.00
2084,745.00
2085,746.00
2086,738.00
2087,740.00
2088,741.00
2089,731.00
2090,742.00
2091,739.00
2092,735.00
2093,738.00
2094,743.00
2095,731.00
2096,739.00
2097,732.00
2098,731.00
2099,734.00
2100,736.00
2101,734.00
2102,731.00
2103,736.00
2104,736.00
2105,728.00
2106,732.00
2107,732.00
2108,725.00
2109,733.00
2110,732.00
2111,731.00
2112,738.00
2113,721.00
2114,730.00
2115,736.00
2116,730.00
2117,730.00
2118,727.00
2119,716.00
2120,733.00
2121,732.00
2122,722.00
2123,724.00
2124,716.00
2125,716.00
2126,725.00
2127,714.00
2128,713.00
2129,722.00
2130,716.00
2131,702.00
2132,711.00
2133,708.00
2134,699.00
2135,695.00
2136,701.00
2137,694.00
2138,686.00
2139,688.00
2140,687.00
2141,685.00
2142,678.00
2143,676.00
2144,672.00
2145,665.00
2146,676.00
2147,665.00
2148,667.00
2149,667.00
2150,666.00
2151,665.00
2152,662.00
2153,660.00
2154,658.00
2155,658.00
2156,657.00
2157,653.00
2158,652.00
2159,651.00
2160,650.00
2161,651.00
2162,648.00
2163,645.00
2164,648.00
2165,645.00
2166,654.00
2167,644.00
2168,640.00
2169,648.00
2170,640.00
2171,639.00
2172,647.00
2173,640.00
2174,630.00
2175,646.00
2176,640.00
2177,635.00
2178,645.00
2179,648.00
2180,641.00
2181,643.00
2182,647.00
2183,647.00
2184,651.00
2185,658.00
2186,670.00
2187,659.00
2188,677.00
2189,680.00
2190,682.00
2191,688.00
2192,697.00
2193,704.00
2194,701.00
2195,720.00
2196,716.00
2197,715.00
2198,722.00
2199,728.00
2200,733.00
2201,736.00
2202,750.00
2203,757.00
2204,753.00
2205,754.00
2206,755.00
2207,754.00
2208,771.00
2209,763.00
2210,753.00
2211,751.00
2212,764.00
2213,768.00
2214,767.00
2215,758.00
2216,762.00
2217,763.00
2218,765.00
2219,772.00
2220,758.00
2221,769.00
2222,757.00
2223,763.00
2224,761.00
2225,767.00
2226,766.00
2227,767.00
2228,763.00
2229,758.00
2230,763.00
2231,757.00
2232,773.00
2233,756.00
2234,753.00
2235,762.00
2236,750.00
2237,754.00
2238,764.00
2239,752.00
2240,760.00
2241,741.00
2242,752.00
2243,754.00
2244,754.00
2245,758.00
2246,752.00
2247,747.00
2248,748.00
2249,750.00
2250,753.00
2251,747.00
2252,747.00
2253,749.00
2254,756.00
2255,752.00
2256,749.00
2257,751.00
2258,754.00
2259,750.00
2260,745.00
2261,758.00
2262,762.00
2263,756.00
2264,759.00
2265,756.00
2266,751.00
2267,749.00
2268,766.00
2269,753.00
2270,744.00
2271,748.00
2272,740.00
2273,745.00
2274,741.00
2275,732.00
2276,732.00
2277,722.00
2278,727.00
2279,721.00
2280,729.00
2281,720.00
2282,711.00
2283,707.00
2284,707.00
2285,704.00
2286,705.00
2287,705.00
2288,697.00
2289,701.00
2290,694.00
2291,692.00
2292,683.00
2293,690.00
2294,684.00
2295,667.00
2296,675.00
2297,676.00
2298,667.00
2299,667.00
2300,674.00
2301,661.00
2302,657.00
2303,655.00
2304,659.00
2305,658.00
2306,651.00
2307,656.00
2308,651.00
2309,641.00
2310,642.00
2311,649.00
2312,641.00
2313,634.00
2314,642.00
2315,643.00
2316,633.00
2317,633.00
2318,635.00
2319,630.00
2320,634.00
2321,629.00
2322,628.00
2323,622.00
2324,635.00
2325,629.00
2326,627.00
2327,631.00
2328,625.00
2329,626.00
2330,631.00
2331,634.00
2332,635.00
2333,631.00
2334,641.00
2335,633.00
2336,630.00
2337,640.00
2338,641.00
2339,651.00
2340,653.00
2341,647.00
2342,643.00
2343,665.00
2344,662.00
2345,664.00
2346,677.00
2347,686.00
2348,681.00
2349,696.00
2350,694.00
2351,703.00
2352,712.00
2353,720.00
2354,715.00
2355,716.00
2356,719.00
2357,734.00
2358,729.00
2359,739.00
2360,739.00
2361,735.00
2362,747.00
2363,755.00
2364,752.00
2365,756.00
2366,759.00
2367,766.00
2368,760.00
2369,755.00
2370,766.00
2371,752.00
2372,757.00
2373,757.00
2374,754.00
2375,751.00
2376,759.00
2377,756.00
2378,754.00
2379,750.00
2380,754.00
2381,753.00
2382,759.00
2383,753.00
2384,750.00
2385,746.00
2386,748.00
2387,755.00
2388,744.00
2389,747.00
2390,748.00
2391,744.00
2392,752.00
2393,745.00
2394,743.00
2395,742.00
2396,749.00
2397,751.00
2398,740.00
2399,747.00
2400,743.00
2401,749.00
2402,743.00
2403,744.00
2404,740.00
2405,734.00
2406,743.00
2407,735.00
2408,738.00
2409,737.00
2410,732.00
2411,731.00
2412,729.00
2413,733.00
2414,732.00
2415,730.00
2416,739.00
2417,733.00
2418,726.00
2419,739.00
2420,736.00
2421,730.00
2422,732.00
2423,738.00
2424,729.00
2425,732.00
2426,732.00
2427,731.00
2428,729.00
2429,728.00
2430,715.00
2431,710.00
2432,715.00
2433,710.00
2434,708.00
2435,701.00
2436,698.00
2437,697.00
2438,691.00
2439,697.00
2440,693.00
2441,699.00
2442,690.00
2443,688.00
2444,688.00
2445,674.00
2446,672.00
2447,670.00
2448,664.00
2449,681.00
2450,666.00
2451,654.00
2452,660.00
2453,655.00
2454,656.00
2455,657.00
2456,647.00
2457,646.00
2458,647.00
2459,649.00
2460,645.00
2461,641.00
2462,645.00
2463,647.00
2464,643.00
2465,640.00
2466,641.00
2467,636.00
2468,625.00
2469,635.00
2470,635.00
2471,644.00
2472,633.00
2473,641.00
2474,636.00
2475,644.00
2476,651.00
2477,651.00
2478,651.00
2479,659.00
2480,665.00
2481,670.00
2482,672.00
2483,680.00
2484,688.00
2485,690.00
2486,687.00
2487,701.00
2488,707.00
2489,709.00
2490,711.00
2491,717.00
2492,717.00
2493,729.00
2494,731.00
2495,724.00
2496,738.00
2497,736.00
2498,741.00
2499,746.00
2500,744.00
2501,742.00
2502,746.00
2503,750.00
2504,744.00
2505,746.00
2506,751.00
2507,749.00
2508,743.00
2509,755.00
2510,747.00
2511,747.00
2512,758.00
2513,759.00
2514,758.00
2515,759.00
2516,755.00
2517,754.00
2518,757.00
2519,761.00
2520,762.00
2521,755.00
2522,761.00
2523,733.00
2524,751.00
2525,755.00
2526,764.00
2527,752.00
2528,756.00
2529,758.00
2530,753.00
2531,752.00
2532,754.00
2533,748.00
2534,745.00
2535,753.00
2536,746.00
2537,751.00
2538,752.00
2539,755.00
2540,752.00
2541,746.00
2542,746.00
2543,749.00
2544,751.00
2545,744.00
2546,743.00
2547,739.00
2548,737.00
2549,748.00
2550,736.00
2551,744.00
2552,748.00
2553,743.00
2554,746.00
2555,747.00
2556,744.00
2557,738.00
2558,734.00
2559,736.00
2560,738.00
2561,730.00
2562,738.00
2563,742.00
2564,743.00
2565,740.00
2566,739.00
2567,743.00
2568,745.00
2569,738.00
2570,736.00
2571,722.00
2572,737.00
2573,731.00
2574,730.00
2575,733.00
2576,726.00
2577,726.00
2578,713.00
2579,713.00
2580,711.00
2581,711.00
2582,707.00
2583,704.00
2584,688.00
2585,686.00
2586,691.00
2587,700.00
2588,688.00
2589,680.00
2590,686.00
2591,672.00
2592,678.00
2593,672.00
2594,678.00
2595,664.00
2596,669.00
2597,654.00
2598,652.00
2599,651.00
2600,651.00
2601,652.00
2602,653.00
2603,653.00
2604,654.00
2605,641.00
2606,637.00
2607,637.00
2608,643.00
2609,635.00
2610,632.00
2611,631.00
2612,638.00
2613,632.00
2614,626.00
2615,625.00
2616,625.00
2617,628.00
2618,629.00
2619,625.00
2620,622.00
2621,637.00
2622,622.00
2623,626.00
2624,623.00
2625,628.00
2626,620.00
2627,626.00
2628,616.00
2629,630.00
2630,628.00
2631,631.00
2632,626.00
2633,632.00
2634,639.00
2635,645.00
2636,652.00
2637,659.00
2638,655.00
2639,667.00
2640,673.00
2641,674.00
2642,682.00
2643,688.00
2644,697.00
2645,696.00
2646,705.00
2647,706.00
2648,708.00
2649,719.00
2650,714.00
2651,721.00
2652,734.00
2653,716.00
2654,720.00
2655,736.00
2656,731.00
2657,727.00
2658,732.00
2659,736.00
2660,739.00
2661,731.00
2662,739.00
2663,732.00
2664,740.00
2665,734.00
2666,746.00
2667,736.00
2668,745.00
2669,742.00
2670,739.00
2671,740.00
2672,732.00
2673,736.00
2674,746.00
2675,732.00
2676,741.00
2677,732.00
2678,730.00
2679,738.00
2680,734.00
2681,729.00
2682,728.00
2683,735.00
2684,726.00
2685,737.00
2686,739.00
2687,729.00
2688,728.00
2689,729.00
2690,725.00
2691,726.00
2692,729.00
2693,735.00
2694,730.00
2695,733.00
2696,728.00
2697,733.00
2698,728.00
2699,735.00
2700,724.00
2701,728.00
2702,720.00
2703,722.00
2704,716.00
2705,723.00
2706,715.00
2707,719.00
2708,712.00
2709,721.00
2710,715.00
2711,709.00
2712,708.00
2713,709.00
2714,706.00
2715,713.00
2716,713.00
2717,715.00
2718,704.00
2719,703.00
2720,715.00
2721,702.00
2722,698.00
2723,704.00
2724,706.00
2725,707.00
2726,698.00
2727,692.00
2728,690.00
2729,689.00
2730,689.00
2731,681.00
2732,677.00
2733,675.00
2734,674.00
2735,671.00
2736,676.00
2737,661.00
2738,657.00
2739,657.00
2740,655.00
2741,651.00
2742,646.00
2743,668.00
2744,647.00
2745,645.00
2746,640.00
2747,637.00
2748,633.00
2749,639.00
2750,628.00
2751,629.00
2752,630.00
2753,630.00
2754,625.00
2755,623.00
2756,632.00
2757,631.00
2758,623.00
2759,627.00
2760,627.00
2761,626.00
2762,622.00
2763,620.00
2764,614.00
2765,619.00
2766,625.00
2767,626.00
2768,613.00
2769,619.00
2770,624.00
2771,621.00
2772,622.00
2773,629.00
2774,620.00
2775,618.00
2776,622.00
2777,621.00
2778,626.00
2779,629.00
2780,622.00
2781,621.00
2782,631.00
2783,622.00
2784,624.00
2785,617.00
2786,626.00
2787,628.00
2788,624.00
2789,629.00
2790,633.00
2791,623.00
2792,625.00
2793,628.00
2794,632.00
2795,635.00
2796,629.00
2797,633.00
2798,632.00
2799,642.00
2800,635.00
2801,644.00
2802,632.00
2803,648.00
2804,651.00
2805,648.00
2806,652.00
2807,662.00
2808,665.00
2809,670.00
2810,668.00
2811,664.00
2812,674.00
2813,677.00
2814,671.00
2815,671.00
2816,679.00
2817,675.00
2818,679.00
2819,674.00
2820,688.00
2821,672.00
2822,688.00
2823,691.00
2824,697.00
2825,703.00
2826,712.00
2827,716.00
2828,713.00
2829,716.00
2830,717.00
2831,719.00
2832,723.00
2833,733.00
2834,728.00
2835,732.00
2836,740.00
2837,739.00
2838,741.00
2839,748.00
2840,751.00
2841,741.00
2842,742.00
2843,744.00
2844,744.00
2845,742.00
2846,744.00
2847,751.00
2848,742.00
2849,757.00
2850,755.00
2851,753.00
2852,743.00
2853,742.00
2854,751.00
2855,743.00
2856,739.00
2857,744.00
2858,748.00
2859,733.00
2860,737.00
2861,744.00
2862,746.00
2863,739.00
2864,741.00
2865,732.00
2866,729.00
2867,742.00
2868,748.00
2869,742.00
2870,744.00
2871,738.00
2872,740.00
2873,744.00
2874,740.00
2875,738.00
2876,732.00
2877,735.00
2878,743.00
2879,733.00
2880,757.00
2881,739.00
2882,737.00
2883,730.00
2884,731.00
2885,735.00
2886,727.00
2887,736.00
2888,725.00
2889,722.00
2890,720.00
2891,733.00
2892,724.00
2893,727.00
2894,725.00
2895,724.00
2896,721.00
2897,725.00
2898,722.00
2899,734.00
2900,722.00
2901,719.00
2902,724.00
2903,723.00
2904,723.00
2905,717.00
2906,719.00
2907,712.00
2908,710.00
2909,712.00
2910,715.00
2911,710.00
2912,699.00
2913,703.00
2914,707.00
2915,702.00
2916,688.00
2917,684.00
2918,684.00
2919,675.00
2920,683.00
2921,672.00
2922,668.00
2923,671.00
2924,662.00
2925,661.00
2926,664.00
2927,657.00
2928,664.00
2929,652.00
2930,655.00
2931,648.00
2932,655.00
2933,643.00
2934,649.00
2935,651.00
2936,645.00
2937,644.00
2938,641.00
2939,642.00
2940,652.00
2941,651.00
2942,639.00
2943,635.00
2944,647.00
2945,644.00
2946,638.00
2947,636.00
2948,639.00
2949,632.00
2950,629.00
2951,637.00
2952,638.00
2953,635.00
2954,634.00
2955,633.00
2956,633.00
2957,638.00
2958,635.00
2959,637.00
2960,632.00
2961,639.00
2962,631.00
2963,632.00
2964,639.00
2965,642.00
2966,636.00
2967,636.00
2968,644.00
2969,644.00
2970,653.00
2971,647.00
2972,654.00
2973,656.00
2974,657.00
2975,668.00
2976,659.00
2977,669.00
2978,676.00
2979,678.00
2980,677.00
2981,697.00
2982,689.00
2983,687.00
2984,710.00
2985,716.00
2986,707.00
2987,726.00
2988,731.00
2989,731.00
2990,726.00
2991,736.00
2992,730.00
2993,738.00
2994,737.00
2995,742.00
2996,740.00
2997,738.00
2998,752.00
2999,742.00
3000,749.00
3001,742.00
3002,750.00
3003,751.00
3004,749.00
3005,749.00
3006,755.00
3007,753.00
3008,749.00
3009,759.00
3010,762.00
3011,751.00
3012,748.00
3013,745.00
3014,744.00
3015,750.00
3016,753.00
3017,752.00
3018,742.00
3019,745.00
3020,747.00
3021,740.00
3022,741.00
3023,739.00
3024,741.00
3025,748.00
3026,739.00
3027,739.00
3028,740.00
3029,748.00
3030,738.00
3031,737.00
3032,739.00
3033,736.00
3034,736.00
3035,738.00
3036,742.00
3037,744.00
3038,737.00
3039,744.00
3040,736.00
3041,733.00
3042,739.00
3043,740.00
3044,739.00
3045,736.00
3046,733.00
3047,732.00
3048,732.00
3049,732.00
3050,729.00
3051,725.00
3052,727.00
3053,731.00
3054,734.00
3055,726.00
3056,734.00
3057,723.00
3058,727.00
3059,736.00
3060,725.00
3061,724.00
3062,734.00
3063,732.00
3064,734.00
3065,734.00
3066,726.00
3067,729.00
3068,736.00
3069,729.00
3070,735.00
3071,733.00
3072,728.00
3073,727.00
3074,728.00
3075,721.00
3076,733.00
3077,731.00
3078,724.00
3079,729.00
3080,719.00
3081,721.00
3082,721.00
3083,724.00
3084,722.00
3085,721.00
3086,722.00
3087,724.00
3088,717.00
3089,721.00
3090,719.00
3091,715.00
3092,722.00
3093,715.00
3094,713.00
3095,713.00
3096,717.00
3097,710.00
3098,709.00
3099,711.00
3100,709.00
3101,715.00
3102,711.00
3103,707.00
3104,708.00
3105,710.00
3106,713.00
3107,716.00
3108,697.00
3109,700.00
3110,703.00
3111,711.00
3112,705.00
3113,700.00
3114,694.00
3115,698.00
3116,690.00
3117,692.00
3118,697.00
3119,686.00
3120,693.00
3121,684.00
3122,683.00
3123,689.00
3124,687.00
3125,679.00
3126,690.00
3127,678.00
3128,676.00
3129,673.00
3130,677.00
3131,676.00
3132,672.00
3133,666.00
3134,674.00
3135,671.00
3136,668.00
3137,669.00
3138,669.00
3139,666.00
3140,663.00
3141,664.00
3142,660.00
3143,663.00
3144,660.00
3145,657.00
3146,656.00
3147,667.00
3148,651.00
3149,657.00
3150,648.00
3151,652.00
3152,644.00
3153,649.00
3154,648.00
3155,646.00
3156,641.00
3157,642.00
3158,651.00
3159,649.00
3160,647.00
3161,642.00
3162,635.00
3163,635.00
3164,638.00
3165,639.00
3166,632.00
3167,630.00
3168,633.00
3169,633.00
3170,632.00
3171,633.00
3172,629.00
3173,632.00
3174,628.00
3175,632.00
3176,635.00
3177,627.00
3178,629.00
3179,618.00
3180,633.00
3181,635.00
3182,636.00
3183,633.00
3184,634.00
3185,649.00
3186,659.00
3187,668.00
3188,669.00
3189,674.00
3190,686.00
3191,687.00
3192,688.00
3193,691.00
3194,710.00
3195,719.00
3196,719.00
3197,713.00
3198,728.00
3199,725.00
3200,742.00
3201,738.00
3202,742.00
3203,727.00
3204,728.00
3205,741.00
3206,741.00
3207,738.00
3208,741.00
3209,741.00
3210,748.00
3211,738.00
3212,752.00
3213,743.00
3214,751.00
3215,748.00
3216,745.00
3217,749.00
3218,752.00
3219,748.00
3220,744.00
3221,745.00
3222,748.00
3223,754.00
3224,736.00
3225,741.00
3226,746.00
3227,745.00
3228,745.00
3229,753.00
3230,740.00
3231,734.00
3232,741.00
3233,740.00
3234,736.00
3235,736.00
3236,747.00
3237,743.00
3238,736.00
3239,738.00
3240,736.00
3241,729.00
3242,743.00
3243,739.00
3244,729.00
3245,728.00
3246,731.00
3247,730.00
3248,733.00
3249,730.00
3250,725.00
3251,730.00
3252,728.00
3253,726.00
3254,716.00
3255,726.00
3256,723.00
3257,726.00
3258,721.00
3259,725.00
3260,726.00
3261,727.00
3262,728.00
3263,731.00
3264,721.00
3265,719.00
3266,723.00
3267,722.00
3268,716.00
3269,719.00
3270,721.00
3271,728.00
3272,719.00
3273,719.00
3274,730.00
3275,725.00
3276,726.00
3277,722.00
3278,725.00
3279,720.00
3280,728.00
3281,718.00
3282,714.00
3283,719.00
3284,725.00
3285,713.00
3286,715.00
3287,720.00
3288,713.00
3289,714.00
3290,725.00
3291,713.00
3292,711.00
3293,713.00
3294,712.00
3295,714.00
3296,712.00
3297,710.00
3298,709.00
3299,707.00
3300,717.00
3301,707.00
3302,713.00
3303,704.00
3304,707.00
3305,705.00
3306,709.00
3307,706.00
3308,703.00
3309,699.00
3310,702.00
3311,703.00
3312,711.00
3313,708.00
3314,698.00
3315,697.00
3316,712.00
3317,704.00
3318,694.00
3319,701.00
3320,687.00
3321,692.00
3322,696.00
3323,694.00
3324,683.00
3325,683.00
3326,687.00
3327,686.00
3328,692.00
3329,684.00
3330,678.00
3331,677.00
3332,686.00
3333,676.00
3334,676.00
3335,672.00
3336,677.00
3337,673.00
3338,670.00
3339,669.00
3340,673.00
3341,664.00
3342,662.00
3343,665.00
3344,666.00
3345,661.00
3346,658.00
3347,656.00
3348,658.00
3349,663.00
3350,653.00
3351,660.00
3352,663.00
3353,624.00
3354,650.00
3355,648.00
3356,652.00
3357,643.00
3358,659.00
3359,648.00
3360,645.00
3361,640.00
3362,648.00
3363,642.00
3364,637.00
3365,638.00
3366,642.00
3367,632.00
3368,635.00
3369,636.00
3370,636.00
3371,629.00
3372,629.00
3373,632.00
3374,632.00
3375,632.00
3376,634.00
3377,624.00
3378,627.00
3379,622.00
3380,628.00
3381,631.00
3382,629.00
3383,622.00
3384,621.00
3385,631.00
3386,624.00
3387,622.00
3388,618.00
3389,624.00
3390,624.00
3391,627.00
3392,631.00
3393,639.00
3394,639.00
3395,647.00
3396,669.00
3397,679.00
3398,682.00
3399,691.00
3400,699.00
3401,703.00
3402,719.00
3403,721.00
3404,732.00
3405,729.00
3406,735.00
3407,746.00
3408,748.00
3409,745.00
3410,756.00
3411,753.00
3412,755.00
3413,750.00
3414,755.00
3415,749.00
3416,747.00
3417,751.00
3418,746.00
3419,743.00
3420,751.00
3421,749.00
3422,745.00
3423,758.00
3424,755.00
3425,748.00
3426,748.00
3427,750.00
3428,738.00
3429,745.00
3430,756.00
3431,745.00
3432,748.00
3433,747.00
3434,747.00
3435,739.00
3436,742.00
3437,743.00
3438,744.00
3439,734.00
3440,742.00
3441,735.00
3442,737.00
3443,750.00
3444,741.00
3445,734.00
3446,739.00
3447,731.00
3448,721.00
3449,737.00
3450,736.00
3451,735.00
3452,731.00
3453,732.00
3454,735.00
3455,731.00
3456,725.00
3457,735.00
3458,729.00
3459,726.00
3460,730.00
3461,731.00
3462,732.00
3463,720.00
3464,726.00
3465,731.00
3466,725.00
3467,723.00
3468,730.00
3469,719.00
3470,717.00
3471,717.00
3472,723.00
3473,729.00
3474,721.00
3475,737.00
3476,726.00
3477,711.00
3478,720.00
3479,716.00
3480,720.00
3481,716.00
3482,716.00
3483,714.00
3484,720.00
3485,696.00
3486,715.00
3487,712.00
3488,714.00
3489,720.00
3490,716.00
3491,709.00
3492,718.00
3493,717.00
3494,704.00
3495,717.00
3496,717.00
3497,704.00
3498,703.00
3499,712.00
3500,708.00
3501,704.00
3502,701.00
3503,700.00
3504,695.00
3505,698.00
3506,700.00
3507,707.00
3508,696.00
3509,693.00
3510,694.00
3511,696.00
3512,698.00
3513,694.00
3514,688.00
3515,686.00
3516,686.00
3517,687.00
3518,684.00
3519,687.00
3520,690.00
3521,685.00
3522,683.00
3523,681.00
3524,678.00
3525,682.00
3526,673.00
3527,679.00
3528,672.00
3529,673.00
3530,677.00
3531,666.00
3532,668.00
3533,673.00
3534,669.00
3535,672.00
3536,664.00
3537,662.00
3538,651.00
3539,659.00
3540,658.00
3541,640.00
3542,659.00
3543,657.00
3544,652.00
3545,656.00
3546,648.00
3547,656.00
3548,649.00
3549,638.00
3550,648.00
3551,645.00
3552,634.00
3553,641.00
3554,643.00
3555,641.00
3556,638.00
3557,637.00
3558,643.00
3559,630.00
3560,632.00
3561,636.00
3562,630.00
3563,641.00
3564,646.00
3565,637.00
3566,638.00
3567,647.00
3568,641.00
3569,644.00
3570,646.00
3571,666.00
3572,664.00
3573,686.00
3574,690.00
3575,699.00
3576,704.00
3577,714.00
3578,721.00
3579,735.00
3580,729.00
3581,743.00
3582,745.00
3583,747.00
3584,746.00
3585,747.00
3586,757.00
3587,753.00
3588,760.00
3589,758.00
3590,759.00
3591,756.00
3592,762.00
3593,756.00
3594,775.00
3595,752.00
3596,759.00
3597,761.00
3598,753.00
3599,753.00
3600,752.00
3601,753.00
3602,755.00
3603,749.00
3604,760.00
3605,752.00
3606,751.00
3607,746.00
3608,748.00
3609,758.00
3610,752.00
3611,750.00
3612,756.00
3613,747.00
3614,743.00
3615,748.00
3616,748.00
3617,749.00
3618,752.00
3619,751.00
3620,747.00
3621,738.00
3622,740.00
3623,747.00
3624,740.00
3625,739.00
3626,778.00
3627,733.00
3628,738.00
3629,737.00
3630,735.00
3631,732.00
3632,734.00
3633,737.00
3634,737.00
3635,737.00
3636,730.00
3637,731.00
3638,732.00
3639,708.00
3640,733.00
3641,731.00
3642,739.00
3643,739.00
3644,732.00
3645,735.00
3646,737.00
3647,726.00
3648,732.00
3649,733.00
3650,731.00
3651,731.00
3652,722.00
3653,726.00
3654,731.00
3655,726.00
3656,730.00
3657,718.00
3658,719.00
3659,720.00
3660,734.00
3661,724.00
3662,720.00
3663,718.00
3664,721.00
3665,719.00
3666,713.00
3667,719.00
3668,714.00
3669,714.00
3670,718.00
3671,716.00
3672,718.00
3673,711.00
3674,710.00
3675,704.00
3676,699.00
3677,709.00
3678,715.00
3679,702.00
3680,702.00
3681,710.00
3682,700.00
3683,700.00
3684,707.00
3685,702.00
3686,699.00
3687,695.00
3688,694.00
3689,691.00
3690,689.00
3691,689.00
3692,683.00
3693,686.00
3694,691.00
3695,683.00
3696,689.00
3697,682.00
3698,679.00
3699,675.00
3700,673.00
3701,675.00
3702,675.00
3703,660.00
3704,669.00
3705,665.00
3706,667.00
3707,661.00
3708,670.00
3709,658.00
3710,662.00
3711,658.00
3712,650.00
3713,662.00
3714,661.00
3715,653.00
3716,649.00
3717,648.00
3718,651.00
3719,650.00
3720,652.00
3721,645.00
3722,649.00
3723,653.00
3724,645.00
3725,637.00
3726,642.00
3727,644.00
3728,642.00
3729,644.00
3730,640.00
3731,641.00
3732,636.00
3733,638.00
3734,638.00
3735,640.00
3736,640.00
3737,635.00
3738,631.00
3739,632.00
3740,627.00
3741,637.00
3742,628.00
3743,634.00
3744,628.00
3745,631.00
3746,635.00
3747,627.00
3748,623.00
3749,629.00
3750,635.00
3751,624.00
3752,628.00
3753,624.00
3754,624.00
3755,642.00
3756,628.00
3757,630.00
3758,624.00
3759,620.00
3760,621.00
3761,630.00
3762,621.00
3763,626.00
3764,636.00
3765,619.00
3766,622.00
3767,624.00
3768,625.00
3769,616.00
3770,627.00
3771,648.00
3772,633.00
3773,647.00
3774,660.00
3775,678.00
3776,684.00
3777,704.00
3778,705.00
3779,715.00
3780,727.00
3781,742.00
3782,744.00
3783,748.00
3784,758.00
3785,746.00
3786,750.00
3787,755.00
3788,759.00
3789,753.00
3790,761.00
3791,759.00
3792,763.00
3793,768.00
3794,762.00
3795,763.00
3796,762.00
3797,767.00
3798,770.00
3799,768.00
3800,762.00
3801,768.00
3802,769.00
3803,772.00
3804,775.00
3805,774.00
3806,765.00
3807,765.00
3808,771.00
3809,764.00
3810,768.00
3811,765.00
3812,761.00
3813,757.00
3814,759.00
3815,760.00
3816,767.00
3817,755.00
3818,758.00
3819,759.00
3820,756.00
3821,762.00
3822,765.00
3823,757.00
3824,765.00
3825,763.00
3826,770.00
3827,770.00
3828,754.00
3829,768.00
3830,764.00
3831,768.00
3832,757.00
3833,760.00
3834,788.00
3835,765.00
3836,761.00
3837,755.00
3838,760.00
3839,752.00
3840,757.00
3841,760.00
3842,753.00
3843,754.00
3844,750.00
3845,747.00
3846,752.00
3847,751.00
3848,744.00
3849,756.00
3850,749.00
3851,747.00
3852,749.00
3853,755.00
3854,742.00
3855,743.00
3856,745.00
3857,744.00
3858,737.00
3859,743.00
3860,740.00
3861,736.00
3862,737.00
3863,741.00
3864,738.00
3865,730.00
3866,741.00
3867,731.00
3868,733.00
3869,733.00
3870,736.00
3871,732.00
3872,722.00
3873,729.00
3874,721.00
3875,719.00
3876,720.00
3877,724.00
3878,716.00
3879,717.00
3880,715.00
3881,711.00
3882,713.00
3883,712.00
3884,709.00
3885,704.00
3886,703.00
3887,706.00
3888,711.00
3889,705.00
3890,700.00
3891,698.00
3892,697.00
3893,695.00
3894,697.00
3895,691.00
3896,695.00
3897,688.00
3898,694.00
3899,689.00
3900,684.00
3901,669.00
3902,681.00
3903,686.00
3904,673.00
3905,676.00
3906,674.00
3907,671.00
3908,668.00
3909,672.00
3910,675.00
3911,666.00
3912,664.00
3913,661.00
3914,669.00
3915,666.00
3916,660.00
3917,665.00
3918,656.00
3919,658.00
3920,651.00
3921,653.00
3922,651.00
3923,649.00
3924,645.00
3925,647.00
3926,644.00
3927,642.00
3928,648.00
3929,638.00
3930,639.00
3931,636.00
3932,636.00
3933,640.00
3934,634.00
3935,643.00
3936,634.00
3937,631.00
3938,634.00
3939,631.00
3940,629.00
3941,626.00
3942,632.00
3943,627.00
3944,629.00
3945,624.00
3946,625.00
3947,622.00
3948,619.00
3949,628.00
3950,622.00
3951,621.00
3952,619.00
3953,617.00
3954,615.00
3955,615.00
3956,620.00
3957,616.00
3958,616.00
3959,612.00
3960,620.00
3961,623.00
3962,615.00
3963,623.00
3964,618.00
3965,615.00
3966,620.00
3967,633.00
3968,639.00
3969,650.00
3970,648.00
3971,657.00
3972,670.00
3973,683.00
3974,696.00
3975,693.00
3976,697.00
3977,713.00
3978,724.00
3979,731.00
3980,752.00
3981,753.00
3982,745.00
3983,761.00
3984,763.00
3985,769.00
3986,765.00
3987,769.00
3988,765.00
3989,768.00
3990,766.00
3991,771.00
3992,759.00
3993,759.00
3994,775.00
3995,768.00
3996,763.00
3997,765.00
3998,760.00
3999,768.00
4000,761.00
4001,771.00
4002,758.00
4003,761.00
4004,771.00
4005,772.00
4006,763.00
4007,767.00
4008,772.00
4009,759.00
4010,759.00
4011,757.00
4012,764.00
4013,758.00
4014,760.00
4015,764.00
4016,755.00
4017,756.00
4018,754.00
4019,757.00
4020,751.00
4021,759.00
4022,747.00
4023,748.00
4024,749.00
4025,757.00
4026,748.00
4027,735.00
4028,746.00
4029,757.00
4030,758.00
4031,749.00
4032,755.00
4033,753.00
4034,747.00
4035,754.00
4036,751.00
4037,750.00
4038,754.00
4039,755.00
4040,748.00
4041,750.00
4042,752.00
4043,747.00
4044,744.00
4045,745.00
4046,752.00
4047,749.00
4048,754.00
4049,746.00
4050,743.00
4051,749.00
4052,743.00
4053,746.00
4054,749.00
4055,745.00
4056,747.00
4057,735.00
4058,752.00
4059,742.00
4060,736.00
4061,733.00
4062,747.00
4063,737.00
4064,732.00
4065,732.00
4066,732.00
4067,710.00
4068,731.00
4069,729.00
4070,735.00
4071,726.00
4072,712.00
4073,723.00
4074,724.00
4075,724.00
4076,717.00
4077,717.00
4078,712.00
4079,711.00
4080,712.00
4081,711.00
4082,704.00
4083,715.00
4084,711.00
4085,702.00
4086,703.00
4087,709.00
4088,708.00
4089,696.00
4090,700.00
4091,693.00
4092,693.00
4093,698.00
4094,697.00
4095,690.00
4096,692.00
4097,677.00
4098,696.00
4099,677.00
4100,679.00
4101,680.00
4102,673.00
4103,676.00
4104,660.00
4105,668.00
4106,662.00
4107,663.00
4108,662.00
4109,657.00
4110,660.00
4111,656.00
4112,646.00
4113,646.00
4114,648.00
4115,645.00
4116,645.00
4117,635.00
4118,639.00
4119,641.00
4120,644.00
4121,641.00
4122,639.00
4123,632.00
4124,626.00
4125,636.00
4126,633.00
4127,623.00
4128,621.00
4129,617.00
4130,619.00
4131,622.00
4132,617.00
4133,614.00
4134,610.00
4135,614.00
4136,610.00
4137,607.00
4138,616.00
4139,614.00
4140,606.00
4141,597.00
4142,607.00
4143,605.00
4144,604.00
4145,602.00
4146,611.00
4147,601.00
4148,603.00
4149,602.00
4150,603.00
4151,604.00
4152,611.00
4153,616.00
4154,624.00
4155,620.00
4156,630.00
4157,630.00
4158,653.00
4159,661.00
4160,674.00
4161,681.00
4162,704.00
4163,711.00
4164,715.00
4165,736.00
4166,746.00
4167,744.00
4168,746.00
4169,763.00
4170,758.00
4171,761.00
4172,762.00
4173,765.00
4174,765.00
4175,769.00
4176,774.00
4177,774.00
4178,776.00
4179,774.00
4180,784.00
4181,776.00
4182,776.00
4183,785.00
4184,784.00
4185,780.00
4186,770.00
4187,767.00
4188,776.00
4189,772.00
4190,774.00
4191,766.00
4192,769.00
4193,771.00
4194,752.00
4195,762.00
4196,759.00
4197,769.00
4198,759.00
4199,756.00
4200,769.00
4201,757.00
4202,760.00
4203,765.00
4204,761.00
4205,764.00
4206,759.00
4207,750.00
4208,756.00
4209,754.00
4210,765.00
4211,763.00
4212,761.00
4213,756.00
4214,761.00
4215,755.00
4216,764.00
4217,766.00
4218,782.00
4219,743.00
4220,761.00
4221,757.00
4222,759.00
4223,753.00
4224,753.00
4225,754.00
4226,762.00
4227,757.00
4228,756.00
4229,754.00
4230,755.00
4231,753.00
4232,757.00
4233,751.00
4234,754.00
4235,749.00
4236,749.00
4237,746.00
4238,752.00
4239,739.00
4240,742.00
4241,738.00
4242,746.00
4243,744.00
4244,736.00
4245,748.00
4246,744.00
4247,732.00
4248,730.00
4249,737.00
4250,738.00
4251,735.00
4252,732.00
4253,730.00
4254,720.00
4255,717.00
4256,723.00
4257,720.00
4258,721.00
4259,717.00
4260,717.00
4261,716.00
4262,709.00
4263,725.00
4264,708.00
4265,701.00
4266,704.00
4267,707.00
4268,706.00
4269,694.00
4270,694.00
4271,693.00
4272,688.00
4273,692.00
4274,688.00
4275,683.00
4276,677.00
4277,677.00
4278,680.00
4279,657.00
4280,672.00
4281,666.00
4282,666.00
4283,667.00
4284,659.00
4285,657.00
4286,658.00
4287,657.00
4288,652.00
4289,658.00
4290,650.00
4291,648.00
4292,646.00
4293,650.00
4294,643.00
4295,646.00
4296,640.00
4297,635.00
4298,637.00
4299,641.00
4300,637.00
4301,639.00
4302,639.00
4303,627.00
4304,629.00
4305,633.00
4306,630.00
4307,631.00
4308,633.00
4309,630.00
4310,634.00
4311,630.00
4312,630.00
4313,629.00
4314,632.00
4315,630.00
4316,627.00
4317,627.00
4318,635.00
4319,630.00
4320,623.00
4321,631.00
4322,636.00
4323,633.00
4324,641.00
4325,640.00
4326,648.00
4327,652.00
4328,666.00
4329,681.00
4330,686.00
4331,691.00
4332,706.00
4333,716.00
4334,723.00
4335,741.00
4336,737.00
4337,746.00
4338,751.00
4339,758.00
4340,768.00
4341,759.00
4342,765.00
4343,768.00
4344,772.00
4345,771.00
4346,771.00
4347,765.00
4348,755.00
4349,770.00
4350,769.00
4351,764.00
4352,764.00
4353,772.00
4354,770.00
4355,762.00
4356,770.00
4357,767.00
4358,777.00
4359,767.00
4360,778.00
4361,767.00
4362,776.00
4363,771.00
4364,768.00
4365,763.00
4366,767.00
4367,765.00
4368,765.00
4369,764.00
4370,761.00
4371,770.00
4372,762.00
4373,769.00
4374,763.00
4375,761.00
4376,757.00
4377,765.00
4378,762.00
4379,759.00
4380,765.00
4381,759.00
4382,755.00
4383,755.00
4384,759.00
4385,762.00
4386,752.00
4387,755.00
4388,757.00
4389,757.00
4390,754.00
4391,767.00
4392,755.00
4393,752.00
4394,761.00
4395,756.00
4396,758.00
4397,755.00
4398,750.00
4399,760.00
4400,759.00
4401,760.00
4402,756.00
4403,760.00
4404,758.00
4405,762.00
4406,757.00
4407,757.00
4408,755.00
4409,758.00
4410,757.00
4411,755.00
4412,768.00
4413,758.00
4414,753.00
4415,757.00
4416,756.00
4417,756.00
4418,751.00
4419,754.00
4420,750.00
4421,751.00
4422,760.00
4423,751.00
4424,745.00
4425,746.00
4426,744.00
4427,728.00
4428,746.00
4429,742.00
4430,750.00
4431,740.00
4432,745.00
4433,745.00
4434,738.00
4435,733.00
4436,732.00
4437,734.00
4438,732.00
4439,736.00
4440,738.00
4441,726.00
4442,723.00
4443,732.00
4444,733.00
4445,719.00
4446,722.00
4447,712.00
4448,720.00
4449,717.00
4450,715.00
4451,713.00
4452,713.00
4453,699.00
4454,716.00
4455,708.00
4456,709.00
4457,707.00
4458,701.00
4459,694.00
4460,695.00
4461,700.00
4462,693.00
4463,687.00
4464,688.00
4465,684.00
4466,684.00
4467,684.00
4468,678.00
4469,680.00
4470,670.00
4471,675.00
4472,666.00
4473,663.00
4474,668.00
4475,656.00
4476,658.00
4477,647.00
4478,661.00
4479,648.00
4480,650.00
4481,644.00
4482,647.00
4483,641.00
4484,641.00
4485,640.00
4486,637.00
4487,640.00
4488,626.00
4489,632.00
4490,626.00
4491,630.00
4492,630.00
4493,628.00
4494,622.00
4495,625.00
4496,626.00
4497,626.00
4498,623.00
4499,621.00
4500,626.00
4501,619.00
4502,621.00
4503,618.00
4504,620.00
4505,614.00
4506,619.00
4507,616.00
4508,620.00
4509,607.00
4510,615.00
4511,612.00
4512,615.00
4513,614.00
4514,610.00
4515,614.00
4516,611.00
4517,616.00
4518,611.00
4519,617.00
4520,609.00
4521,608.00
4522,614.00
4523,615.00
4524,618.00
4525,625.00
4526,630.00
4527,640.00
4528,645.00
4529,648.00
4530,657.00
4531,676.00
4532,678.00
4533,691.00
4534,702.00
4535,701.00
4536,706.00
4537,714.00
4538,727.00
4539,724.00
4540,732.00
4541,738.00
4542,733.00
4543,736.00
4544,742.00
4545,754.00
4546,745.00
4547,747.00
4548,752.00
4549,758.00
4550,757.00
4551,761.00
4552,768.00
4553,760.00
4554,761.00
4555,765.00
4556,771.00
4557,763.00
4558,764.00
4559,756.00
4560,768.00
4561,767.00
4562,763.00
4563,763.00
4564,761.00
4565,761.00
4566,764.00
4567,738.00
4568,757.00
4569,760.00
4570,762.00
4571,758.00
4572,761.00
4573,750.00
4574,752.00
4575,760.00
4576,756.00
4577,763.00
4578,754.00
4579,756.00
4580,753.00
4581,750.00
4582,751.00
4583,746.00
4584,744.00
4585,749.00
4586,746.00
4587,748.00
4588,743.00
4589,742.00
4590,749.00
4591,747.00
4592,746.00
4593,751.00
4594,748.00
4595,741.00
4596,745.00
4597,753.00
4598,743.00
4599,735.00
4600,748.00
4601,743.00
4602,740.00
4603,746.00
4604,740.00
4605,740.00
4606,736.00
4607,737.00
4608,739.00
4609,737.00
4610,738.00
4611,739.00
4612,742.00
4613,743.00
4614,742.00
4615,734.00
4616,736.00
4617,734.00
4618,731.00
4619,730.00
4620,731.00
4621,732.00
4622,717.00
4623,728.00
4624,720.00
4625,723.00
4626,721.00
4627,720.00
4628,721.00
4629,718.00
4630,715.00
4631,719.00
4632,715.00
4633,701.00
4634,710.00
4635,719.00
4636,714.00
4637,708.00
4638,710.00
4639,718.00
4640,708.00
4641,705.00
4642,704.00
4643,703.00
4644,701.00
4645,701.00
4646,691.00
4647,703.00
4648,694.00
4649,694.00
4650,693.00
4651,688.00
4652,688.00
4653,690.00
4654,692.00
4655,679.00
4656,684.00
4657,684.00
4658,681.00
4659,673.00
4660,674.00
4661,674.00
4662,669.00
4663,675.00
4664,673.00
4665,668.00
4666,666.00
4667,668.00
4668,663.00
4669,658.00
4670,662.00
4671,659.00
4672,655.00
4673,654.00
4674,648.00
4675,654.00
4676,649.00
4677,647.00
4678,642.00
4679,639.00
4680,639.00
4681,643.00
4682,642.00
4683,641.00
4684,628.00
4685,641.00
4686,624.00
4687,631.00
4688,635.00
4689,628.00
4690,626.00
4691,625.00
4692,637.00
4693,623.00
4694,617.00
4695,629.00
4696,621.00
4697,620.00
4698,621.00
4699,623.00
4700,617.00
4701,620.00
4702,618.00
4703,616.00
4704,618.00
4705,615.00
4706,614.00
4707,616.00
4708,614.00
4709,613.00
4710,611.00
4711,610.00
4712,617.00
4713,614.00
4714,612.00
4715,605.00
4716,611.00
4717,612.00
4718,613.00
4719,620.00
4720,628.00
4721,635.00
4722,649.00
4723,664.00
4724,665.00
4725,681.00
4726,696.00
4727,706.00
4728,725.00
4729,744.00
4730,733.00
4731,737.00
4732,737.00
4733,743.00
4734,750.00
4735,752.00
4736,749.00
4737,761.00
4738,758.00
4739,764.00
4740,757.00
4741,766.00
4742,760.00
4743,762.00
4744,761.00
4745,771.00
4746,764.00
4747,767.00
4748,766.00
4749,769.00
4750,774.00
4751,772.00
4752,766.00
4753,763.00
4754,765.00
4755,766.00
4756,760.00
4757,766.00
4758,764.00
4759,762.00
4760,762.00
4761,769.00
4762,763.00
4763,759.00
4764,753.00
4765,758.00
4766,771.00
4767,761.00
4768,759.00
4769,758.00
4770,762.00
4771,761.00
4772,757.00
4773,753.00
4774,755.00
4775,746.00
4776,753.00
4777,754.00
4778,750.00
4779,749.00
4780,753.00
4781,748.00
4782,752.00
4783,765.00
4784,767.00
4785,747.00
4786,748.00
4787,754.00
4788,757.00
4789,758.00
4790,747.00
4791,746.00
4792,747.00
4793,759.00
4794,756.00
4795,755.00
4796,747.00
4797,750.00
4798,756.00
4799,753.00
4800,746.00
4801,747.00
4802,749.00
4803,756.00
4804,752.00
4805,746.00
4806,754.00
4807,754.00
4808,757.00
4809,755.00
4810,747.00
4811,748.00
4812,755.00
4813,748.00
4814,755.00
4815,755.00
4816,750.00
4817,742.00
4818,750.00
4819,745.00
4820,746.00
4821,741.00
4822,739.00
4823,744.00
4824,741.00
4825,740.00
4826,723.00
4827,741.00
4828,729.00
4829,737.00
4830,744.00
4831,731.00
4832,740.00
4833,733.00
4834,729.00
4835,733.00
4836,736.00
4837,734.00
4838,728.00
4839,723.00
4840,725.00
4841,731.00
4842,723.00
4843,728.00
4844,721.00
4845,727.00
4846,727.00
4847,720.00
4848,714.00
4849,713.00
4850,713.00
4851,718.00
4852,709.00
4853,714.00
4854,710.00
4855,707.00
4856,710.00
4857,705.00
4858,704.00
4859,701.00
4860,702.00
4861,695.00
4862,700.00
4863,696.00
4864,699.00
4865,692.00
4866,692.00
4867,695.00
4868,693.00
4869,688.00
4870,683.00
4871,687.00
4872,681.00
4873,679.00
4874,680.00
4875,677.00
4876,671.00
4877,671.00
4878,668.00
4879,668.00
4880,667.00
4881,664.00
4882,664.00
4883,662.00
4884,659.00
4885,662.00
4886,664.00
4887,663.00
4888,661.00
4889,660.00
4890,652.00
4891,651.00
4892,651.00
4893,650.00
4894,654.00
4895,648.00
4896,655.00
4897,645.00
4898,643.00
4899,646.00
4900,647.00
4901,642.00
4902,649.00
4903,652.00
4904,645.00
4905,645.00
4906,640.00
4907,648.00
4908,643.00
4909,656.00
4910,659.00
4911,659.00
4912,657.00
4913,663.00
4914,664.00
4915,669.00
4916,672.00
4917,678.00
4918,685.00
4919,683.00
4920,691.00
4921,691.00
4922,702.00
4923,695.00
4924,708.00
4925,706.00
4926,711.00
4927,731.00
4928,725.00
4929,730.00
4930,734.00
4931,738.00
4932,740.00
4933,738.00
4934,744.00
4935,749.00
4936,751.00
4937,758.00
4938,755.00
4939,757.00
4940,741.00
4941,753.00
4942,768.00
4943,764.00
4944,761.00
4945,776.00
4946,782.00
4947,776.00
4948,769.00
4949,771.00
4950,766.00
4951,772.00
4952,773.00
4953,765.00
4954,771.00
4955,764.00
4956,770.00
4957,767.00
4958,757.00
4959,763.00
4960,766.00
4961,760.00
4962,754.00
4963,765.00
4964,765.00
4965,757.00
4966,756.00
4967,757.00
4968,756.00
4969,753.00
4970,755.00
4971,760.00
4972,749.00
4973,751.00
4974,752.00
4975,755.00
4976,755.00
4977,750.00
4978,749.00
4979,754.00
4980,748.00
4981,749.00
4982,746.00
4983,752.00
4984,746.00
4985,749.00
4986,752.00
4987,755.00
4988,750.00
4989,752.00
4990,754.00
4991,771.00
4992,755.00
4993,756.00
4994,752.00
4995,749.00
4996,752.00
4997,748.00
4998,752.00
4999,757.00
5000,754.00
